Fp1,F3,C3,P3,O1,F7,T3,T5,Fz,Fp2,F4,C4,P4,O2,F8,T4,T6,Cz,Pz
-0.5862793308,1.2989216602,1.9597251385,1.0338390228,0.3095860305,-1.2044203602,3.3072698879,4.5259997521,0.6978166432,-9.2754983448,1.5777370283,-1.1705987644,0.0370761254,3.1053248953,-6.8431636426,-4.5851998922,3.7205469963,-1.6875663009,-0.5863818856
-0.3785465538,0.3635717936,-0.9540139798,-1.6763954603,-2.2123551292,-0.4277192941,1.964881977,3.9571253203,-1.5768698946,-9.0960441261,-0.1458416533,-3.0232605229,-2.2088567065,1.4316180285,-6.8833118662,-6.7133322329,2.0868350189,-4.4965648213,-3.3927524069
2.0104445792,0.862511692,-2.1234416951,-2.0123540063,-1.5151086713,0.6512436833,2.6532439939,3.8977656513,-1.5180367508,-0.5668359792,-0.7246874321,-3.5828599816,-2.6927262961,1.1621347274,-2.4078309607,-4.8548289292,2.7726965996,-5.0354781552,-3.4117650961
3.4075300781,1.2902071873,-2.7846490972,-2.3947485977,-0.2048988413,-0.3956010102,3.5673479525,0.0311289974,-1.0493329523,7.6885743194,-2.4716250352,-3.995732709,-2.8878221842,0.3139709541,1.781466806,-3.9720569978,3.5763297128,-5.3149965944,-3.7194202422
1.4889757149,0.6088870713,-3.3979832762,-4.0514314886,-0.673051661,-2.7249388419,2.7573348314,-6.1717092447,-1.7286052559,8.4528711907,-5.9900591496,-5.0253534064,-3.9674740024,-1.6837280434,2.5997998922,-4.7374739859,2.6488270424,-6.1112804288,-5.0159493834
-1.4520533051,0.3135264275,-2.5393931185,-4.1075261041,-0.7565257702,-2.892577944,1.4870617527,-9.333379763,-1.4695593117,5.066232004,-7.9928748598,-5.0533213486,-3.8502735042,-2.3090350014,3.6767553812,-3.0326235561,2.2359490838,-5.2797679252,-4.4433583077
-3.5260488604,0.090055092,-1.199309538,-2.3778315707,-0.5903005594,-0.9684303801,1.5766576387,-9.2859225589,-0.6505387716,-0.5097456028,-6.6077616784,-4.2972542922,-2.9580701692,-2.5055433035,3.5602964542,-1.3760944922,2.0526960081,-3.5249268107,-3.4900113905
-4.4956147047,-0.5986648272,-0.2319851077,-0.8273798864,-1.6305602865,1.5946315618,2.9788971791,-8.0450008108,-0.5048242533,-8.8180911818,-3.366735321,-3.3206514776,-2.8657670372,-3.3181579243,-0.5369786624,-3.3156235508,1.1006396436,-2.1929070272,-3.4789503187
-1.8615520372,0.144916558,1.1926626451,0.9219990902,-2.0285953517,4.38922314,5.1078818015,-5.1806433553,0.5080053506,-13.1307077093,0.210977077,-1.4003887707,-1.831453715,-2.6427598345,-4.4862436492,-4.7624471934,1.1666583957,-0.7381112888,-1.7491807628
2.947980247,1.6584212178,1.5699078732,1.4706042194,-1.9772594767,5.8732904636,6.1712306214,-2.1472250354,1.176221511,-9.0915593652,2.4027601164,-0.2460956951,-0.7308161298,-1.2672070239,-5.5547138956,-1.8306943277,1.5202381278,-0.8997812954,0.6525832696
4.9395442778,1.061047714,-1.0388515043,-1.0208131756,-3.4206295984,4.0016076158,3.956491465,-1.7740560406,-0.775104082,-2.2957682505,1.0168351631,-1.7386381284,-2.2210992099,-1.7417458765,-5.9799169924,2.548479462,0.402021248,-3.9707838689,0.6382399109
5.7777376388,-0.2057102836,-3.6610891181,-2.88006788,-3.9108384071,1.1409727372,1.5222458345,-2.3855856164,-2.3515458804,4.4747561468,-1.2618697162,-3.3629488044,-3.2201415346,-2.0020829585,-5.6747554116,4.2098303516,0.3884363668,-5.7967018059,0.6241121132
7.0762795974,-0.2170957686,-3.4001023879,-1.8459665183,-2.1637390501,0.9594100436,2.4353070228,-2.4577171559,-1.6100550622,10.751198555,-1.688851843,-3.3171518502,-2.0556616605,-0.6530658522,-3.6095162699,2.4842664826,2.5208887034,-4.5737197562,1.9161663785
5.6082502631,-1.1079988436,-2.7266342371,-1.3854326315,-1.7551046589,1.3223155633,4.3726108442,-3.5616285126,-2.1180912746,10.0847894797,-3.6236081879,-3.9086395198,-2.356508299,-0.94303324,-2.8199253606,-2.0657263521,2.4544760516,-4.2239287828,0.8544742256
2.4255450151,-2.8324516434,-2.4991915553,-2.4345413436,-3.1087948171,0.6590549967,5.5219582168,-3.7094122107,-4.32850288,1.531223761,-6.6380268944,-5.2740803359,-3.8963742543,-2.5192172912,-3.6737346414,-7.1503785512,-0.5200758801,-5.1188274006,-1.6630598074
1.6409632241,-1.8563176452,0.2430076853,-1.6433968656,-2.5429704246,2.0011870813,6.2757750758,0.8295646872,-3.7313799866,-5.0715853196,-5.4049499249,-4.2910412436,-2.8057664409,-1.6424089306,-2.8434830258,-7.7804487116,-1.8785688464,-3.9653333376,-1.2473618086
2.4452786777,1.1993266556,3.8946303408,0.2433001874,-0.7625704583,3.9921437321,5.103868729,6.853339825,-0.8137451704,-5.4897035018,-1.5889444945,-1.8403018902,-0.4525529786,0.0277730379,-1.7826652823,-3.7867993038,-1.9692094308,-1.423992473,0.0713906289
1.5860186717,2.8319962492,4.4521610743,-0.5952696288,-1.1261541282,2.5896502687,1.8693420755,8.4728248025,0.4011603889,-4.3125455575,0.0372993088,-1.1756938398,-1.0063664391,-0.6115654077,-1.3888100375,-0.9160464345,-3.3638716347,-0.3108672298,-1.1151548394
0.2276996401,3.5369091205,3.348723855,-2.7305603032,-2.0467663778,-0.222961372,0.0443712331,7.6170174191,0.9166739574,-2.2058471256,0.9941786858,-1.1828968688,-2.4833346566,-1.7566828107,1.577521731,-0.468166807,-3.3669362223,0.0755477074,-1.7648085523
0.246145887,4.0138277477,2.2097120705,-3.9950175173,-2.4405655651,-1.1505311379,0.4864172177,7.1934453514,1.6983571651,1.2485289371,2.3576748243,-0.7588078576,-2.3380123901,-2.5715313872,4.2827254889,0.1834793775,-1.4542914739,0.4732925624,-0.8367106779
0.3112201055,2.5853023924,-0.2581566799,-5.653300927,-4.7215220509,-0.483380761,0.4850156208,4.4430805526,0.6996680077,2.0137285963,1.680826653,-1.1998542699,-2.8245050499,-4.5184899206,3.7415688091,1.2447100625,-0.8529315231,-1.0049681549,-2.0324076797
0.428974864,0.6333530562,-2.0066950723,-5.9346569759,-6.443102244,1.3615089155,0.7158020315,1.2917407394,-0.7504991055,-1.2371401295,0.547289985,-1.2788202171,-3.3877025842,-5.6546718661,3.1987296485,2.2949890108,-0.7708482265,-2.3109311622,-3.5208705216
1.0775164732,0.511572654,-0.7050181282,-2.8397480356,-4.1104156577,3.1160446613,2.6348208477,2.259633348,-0.6376727271,-5.23353881,0.8606844903,-0.2320164125,-2.2583228679,-4.3259226179,1.3886361673,2.5511592345,0.0207522721,-0.6614310335,-1.9328242036
1.1429493088,0.8522759355,1.2356626689,0.2531864585,-0.9666482575,2.6612494745,3.3908408104,4.3829497408,-0.5332898463,-6.1107592194,0.062257352,-0.1863149391,-1.5383084756,-3.2020696174,-3.1092305862,1.1201287267,-0.1834773364,0.8004699922,-0.1586262487
0.9414106893,0.5796170806,2.2594481075,1.2508596041,0.7004823784,1.650762286,2.6510519493,4.7574385182,-0.7522519099,-2.254497906,-2.0291358764,-1.0765807478,-1.6389994242,-3.0906561848,-5.7459243604,-0.2840900281,-0.6087128525,0.797464192,0.3569131967
1.2289446403,0.7512119006,2.8005462686,1.6678612155,2.590164055,2.4724243222,3.1802159488,5.0277964,0.0946235898,3.3227777816,-3.1745259022,-1.4758192032,-0.9010360806,-2.0497276004,-5.6374794172,-0.3412915519,1.0112313627,1.2151368462,1.3606190965
0.9192650091,0.6564341171,1.4573166738,0.4245727873,2.9028143575,3.3946096728,3.8331959371,4.0426289481,0.5783382232,5.1603630407,-4.0718783081,-2.6632175677,-0.9459698999,-1.4277462484,-7.0204732293,-1.8952956947,2.713075879,0.3699406902,0.8096947423
0.002210724,0.0137278807,-1.2499345179,-3.1281063813,0.0463771947,3.2594955289,3.0106267081,1.0764469088,-0.5491984917,2.15942653,-5.3618093025,-4.8607162337,-2.9389982412,-2.4202165283,-11.3859214007,-4.9430094924,2.2132835403,-2.4531130607,-2.697377209
1.0295555497,1.0767024476,-2.1724130296,-4.6948138033,-2.0756853385,4.1343108929,2.0750393969,0.6437058014,-1.0989286611,-0.6913905133,-5.6550027177,-5.3515756226,-3.8313651024,-2.5548808165,-14.0322653438,-3.0061532959,2.2719388091,-3.6337363289,-5.1226892918
2.8870565574,2.2995229249,-2.1284692335,-3.6358290538,-2.3682603526,4.8629643866,1.1794238811,2.5639643333,-1.1233692107,-0.5218542298,-5.6051605058,-4.8856326432,-3.5971562737,-2.4638659313,-12.1790158154,2.9566524479,2.9268229306,-3.0925949424,-5.4989251115
0.7912529146,0.0071756428,-4.1389427882,-4.5763836424,-4.1973990994,2.1958618814,-1.2822007975,1.4582021236,-3.5432625839,-0.3198993767,-7.3016801181,-6.2802231453,-5.9026158199,-4.9937158585,-9.025096793,4.3019643978,-0.3638965731,-4.8058333756,-7.1276274822
-3.4536404922,-3.2871455365,-6.4222052225,-6.3807153298,-6.2497901993,-0.8640698139,-3.1691136111,-0.7978917772,-6.1919323436,-1.95987653,-8.793119329,-7.2250597297,-8.1788438045,-7.3913288864,-4.7349727904,1.2461699562,-4.9737974931,-6.9689386614,-8.2368719828
-5.139239246,-3.9297970067,-5.5863976834,-5.2535105925,-5.1236463848,-0.7298016995,-0.8374306729,0.110494463,-5.3233783261,-4.0152441508,-6.6497289742,-5.1455497413,-5.9905886158,-6.1019672926,0.6027915019,-0.4937794057,-5.507770607,-5.5989844676,-5.8167107238
-6.0343398955,-3.786135714,-2.9778254091,-3.2027624672,-2.9587256903,-0.3652196273,2.2929047654,1.2815105719,-3.76496145,-5.6571132589,-2.8846993428,-2.4331396679,-2.65299177,-3.4183927832,1.5066758797,-1.0168868867,-4.0555287144,-3.2214441459,-2.8248967861
-6.68994948,-3.9874784955,-0.6861176184,-2.0688498099,-2.1843816735,-1.1533775514,2.7071244873,0.7444437741,-3.5448944427,-5.5382189081,-0.5914418646,-0.5439354289,-0.9443245299,-1.8798702919,-2.3904955278,-2.7301655183,-2.5254183459,-1.8491163628,-1.4753122406
-4.5088655133,-2.6218419483,1.953263428,-0.8060971448,-1.7853259654,-0.3655062151,2.7427084014,1.2606361126,-2.0809386941,-2.4207843737,0.3144809342,1.1890165096,0.8108123507,-1.0129911997,-3.8359632068,-5.0251704926,-0.2911877543,-0.0268637444,0.1101131271
-1.9442238598,-1.0731160695,3.3541458139,-0.7255346731,-2.3577623015,1.0464519964,2.1039681825,2.0471373905,-0.7777200057,0.8760340964,-1.0561979475,1.1074736971,0.9320228407,-1.3409235889,-0.0887936317,-6.3293985442,0.2775849658,0.5759611239,0.8520915981
-0.8327175449,-1.1544364396,1.7676001446,-2.8093745972,-3.9877271161,0.9012745987,0.3868913833,1.3974659802,-1.8153845616,3.3496115391,-3.5945453254,-1.2254496015,-1.6366991935,-3.4076318906,4.2818718931,-5.5585301781,-1.7110015496,-1.4324130817,-1.4366604321
1.5727983821,-0.5879818054,0.4427485061,-3.9485844015,-3.6415852037,1.4398658281,1.0700068705,2.2760627542,-2.0632692274,8.0640081314,-3.0538913255,-2.3747452125,-2.9628989142,-4.5086978185,6.370511089,-1.8272443564,-2.8438138646,-2.8933749707,-3.3088118453
3.9349508508,0.7539420223,1.0668025122,-2.5808472845,-1.1524212965,2.5301204168,2.9548477314,4.7851316296,-0.6847638932,11.2075193651,-0.0970689959,-1.550353369,-1.7726262794,-3.2395494846,5.6415020009,2.6311990574,-1.5106294064,-2.3672472942,-2.6528343818
1.6135447593,0.5761544864,0.9573732062,-1.317127697,0.5697443713,0.5707871956,1.5280144013,4.7730726675,-1.0060759799,6.1071881985,1.0886660872,-1.8894820552,-1.1474403781,-2.5856261032,0.7566084692,3.4328299576,-0.4315986755,-2.3833941901,-2.7164264438
-3.6660530005,-0.1418570622,0.2235841562,-0.7445526942,1.6566628258,-2.3628575019,-1.2517160129,2.7757789291,-2.6545982095,-1.4244439873,-0.2232361479,-3.4544375621,-1.6193006895,-2.7446482704,-5.7012483031,0.4618884065,-0.8777678869,-2.8568804245,-2.9503469866
-6.2397665736,-0.3198935828,0.3923554625,0.1325073361,2.7875930969,-2.7146370666,-1.7492325394,1.311984578,-3.1088123001,-2.770149687,-2.6828310601,-4.0120096708,-1.7001803686,-1.7388303508,-9.0054179293,-2.5516005864,-1.2320518409,-2.2927879672,-1.4092466422
-5.9510271572,-1.7183336772,-0.8680421638,-1.0601013117,0.7883983859,-2.2147976281,-2.1179543136,-1.0463123692,-4.187069809,-2.0717041755,-6.6154181041,-5.0632683694,-2.9205209478,-2.212325747,-9.2111779621,-4.6171338047,-1.9856439596,-3.5575731362,-2.0158915126
-4.6101972095,-3.9859802625,-3.7151164002,-4.1476354687,-3.791812356,-1.5897694241,-3.2383384449,-3.6535246657,-6.6224434061,-4.0035569331,-10.2869765812,-7.1221535714,-5.0340967897,-4.23770482,-8.034133589,-6.0180257655,-2.7966036849,-6.808572269,-5.2219861802
-1.5140635753,-3.9202421588,-3.9620307064,-4.4042869921,-5.1127697442,0.6083565952,-3.0031434719,-2.7722429382,-6.1484380703,-6.1795345831,-8.0411857655,-6.5333015471,-4.024594928,-3.3337464226,-6.0175472479,-5.2558479179,-0.3377898614,-6.9122345094,-5.3691618923
0.5727716944,-2.0246781104,-2.371900481,-2.2794822239,-3.0910269963,2.65403868,-3.0284865199,0.1509975638,-3.0920395024,-9.0206911868,-1.1826915333,-3.5183449447,-0.7909779954,-0.535198535,-4.2398065026,-3.9116458146,3.6250802844,-4.4061122764,-2.7808874277
-0.7433036008,-0.9707393649,-2.5345459061,-1.5366563983,-1.5959706565,2.5108786387,-4.3580841732,0.5846080394,-1.4512000572,-11.4227937312,3.0584814068,-1.0781642082,1.078847856,0.6946000222,-2.2980789318,-2.9794423683,4.1706857311,-2.9844231741,-1.2162502016
-1.6763174856,0.1272268572,-2.5891907126,-1.2739743775,-0.7500787368,1.3255452341,-3.9560556963,-0.4383106729,0.0371396912,-8.5476062391,4.8204743239,1.1974449794,2.382780182,0.9664635284,0.5304322154,0.7977337908,2.405413559,-1.2146840978,0.4548721579
-1.4387674574,1.2193476831,-1.0745343418,-0.4797015146,-0.5036222239,-0.8447413003,-1.5032992921,-0.1145660275,1.6702129873,-2.2021610193,5.6160433409,2.883092907,3.2822186268,0.7844672552,1.8691656931,6.31150611,1.1434029913,1.0723423418,2.3762780791
-2.8971921323,0.3760571171,-0.118317152,-0.7497213776,-1.5975877275,-4.8372803639,0.7835137001,0.1846994779,0.4223371745,3.1083289401,3.0482546159,2.3333293282,2.4033953598,-0.2833068256,-0.2379815495,9.6659919334,-0.0283305669,0.9604536533,2.095421908
-3.9810298664,-0.8369998114,0.1297297293,-1.7343207388,-2.9525103025,-7.5920704164,2.9736734627,0.0010357497,-2.2388946668,6.9659348822,-1.8233798591000001,0.7689477624,0.9144031483,-1.0388182534,-3.1823104394,9.5025487133,-0.2469474933,-0.8484149909,0.2228641294
-2.8761499749,-1.1551835693,-0.1577547176,-2.410503206,-4.0715913391,-6.8745120079,4.9003040888,0.190568937,-3.8027337642,7.1451565234,-6.3182700774,-1.0885375781,-0.7880015031,-1.1513371206,-5.4450849125,4.3234939629,0.9678723886,-2.4815775637,-1.7298553261
-3.8486148889,-2.7028730574,-2.1188853674,-3.9342635173,-5.9035381398,-5.2192502853,4.8794806847,-1.3550371527,-5.7963081817,-0.3444721793,-9.560344035,-4.0978184233,-3.7640913844,-2.3458143163,-11.2543070436,-3.6745716325,0.0063809173,-5.0752865005,-4.5589589292
-9.1587693274,-5.7068316687,-4.5061636663,-6.1672740295,-8.0780030899,-4.2832288756,2.5080584085,-4.2824087334,-8.9344870749,-11.84209349,-11.7875065998,-7.2497874776,-6.833623301,-4.7562173247,-19.1867808112,-8.5897975913,-3.6908856838,-8.707485199,-8.0374908596
-13.8272619745,-7.6608537257,-5.1498462718,-6.8183734735,-8.4865998535,-3.1552506798,-0.3052750666,-4.5996514503,-10.8362283245,-18.3052628168,-13.0247839612,-8.7351706843,-7.8786829805,-5.9780825704,-19.7257154231,-8.7788748519,-6.1878474711,-10.7348515201,-10.0063718369
-14.5787193974,-8.0205253895,-5.1962440567,-6.2415410495,-6.9602767405,-2.1405340486,-2.2076925429,-2.8088327221,-11.3402662839,-17.7770848361,-12.9028411126,-9.0996046491,-7.7003793372,-5.6070392104,-12.8931932159,-5.3306040581,-6.7577575637,-10.9852124737,-10.6799671005
-13.4665200487,-8.0582563048,-5.5333284768,-5.4917025221,-4.6732364732,-3.1674660892,-3.2853607045,-1.1470970028,-12.096094641,-13.6740588883,-12.1099536126,-9.6306282917,-7.7388464261,-4.8869358669,-5.5674230501,-1.021976096,-6.3009637161,-10.6956070262,-10.6556263011
-10.5753632523,-7.0704647193,-3.0576927166,-2.5627388154,-0.390559194,-5.4639491172,-1.8792356959,2.1274662524,-10.8876809479,-7.0213706681,-9.4287349076,-8.5566222121,-5.5759138203,-2.0269537453,1.9281934658,0.5855894908,-3.7304723523,-7.6299582256,-7.2506018245
-6.9450686367,-4.9033676624,1.8339801804,2.2591544689,5.4117043851,-6.431011663,1.4490017144,6.336093437,-7.2597739064,-0.7891115648,-4.4177983345,-4.7629944478,-0.23127243,3.2271087794,6.2655704545,1.4494642285,0.8036810053,-1.9878039537,-0.8195579681
-6.2801040959,-3.952582871,4.518018938,5.650346715,9.0331794996,-7.1503462979,3.3788303612,8.1691393187,-4.864803322,1.6794473549,-0.765409143,-0.6295201531,4.6623964656,7.256274274,3.9159080797,3.7217108897,5.2819187891,1.880410623,4.3797569703
-5.6104912701,-2.933894602,6.3473109253,8.4677354608,10.8774888979,-6.9130590328,5.4192472367,9.4828299144,-2.213431084,4.3135198903,1.5754879411,4.1047229231,8.9393644641,10.5619203785,3.9132136355,6.6153886996,9.9936122561,5.0901645432,8.9072529332
-0.0756976867,1.310184977,10.6879701092,12.992512299,13.6244238485,-2.1937747233,9.6244225373,12.5190596936,3.5591126713,10.1079730376,5.4356444593,10.9534850541,14.7595231722,15.3284913587,11.7753214793,10.3422157774,16.1927738339,10.7698261537,14.9270585324
6.5904190407,5.9811738583,14.633870097,16.1799996108,14.9010780425,2.907441064,11.4662008973,13.3918393737,8.6852866139,14.2070953981,8.8706196237,16.4836623018,19.1503546,18.2699926634,19.2537888287,13.2223462044,20.578441487,15.4075304154,19.0835276466
8.9235274188,6.7862033143,14.8466264155,14.8078819894,12.0221064587,2.7243788145,7.7735383123,9.7784807995,9.3852272723,13.5603327272,9.7848685594,17.3804920118,19.0703445703,16.2799445945,18.9946235976,13.5857688053,19.814980876,15.5280826933,18.8401076059
7.765300639,4.5028926576,12.3067629651,10.9474035661,7.5872302162,0.1791135706,3.710683672,5.5608224313,7.5895318787,10.7995696304,9.9334403176,15.6373006347,16.2916869193,11.3024728058,14.3191618294,13.5227977038,16.156558151,13.368469533,16.3129083552
5.483218254,2.0184149801,8.9448288263,7.3972038471,4.7407512935,-1.2235588102,2.5728821144,3.00589732,6.0669829272,7.9292697504,10.0382266738,13.7409967617,12.8202144589,6.5506146198,12.1392920918,13.8748274075,12.4951666027,11.395920337,12.6462678649
2.4445556292,0.1412158306,5.3693669909,4.0812688033,3.0741513707,-2.5851532551,0.8601831361,0.4584949424,4.8223050272,5.3052749098,8.4712644383,11.1547794987,9.0421614432,3.185879039,11.3783184571,12.6169356929,9.5086083416,9.0908356723,7.7733524469
0.2763314437,-1.0505743592,2.6731760908,1.8220422644,1.7343139898,-3.5645187656,-0.7566469321,-1.3138255103,4.4611732046,3.9053732726,6.1751044025,8.2047098578,6.501135283,1.56527943,8.381266009,10.3048149315,8.0945394056,7.011877529,4.1469876261
-0.7066364529,-1.2081573093,1.7094140855,1.8890072851,1.0582667052,-3.3640177365,0.403446157,-1.174507013,5.1326343301,3.2221396914,5.2192661051,6.4218457527,5.9007554228,1.7379778032,4.4519648218,8.2345868264,7.529918226,6.3057105289,3.1496425816
-3.4492886331,-1.8842187691,0.3157174157,1.702742646,-0.2448336747,-4.3335150192,0.6770515489,-2.2914645422,3.7158892214,-0.2400248944,3.5772638142,4.8449487491,4.396413187,1.0799704947,0.234490557,5.8949214435,4.9517930788,4.5494675054,1.7539885402
-6.363791238,-2.963577714,-1.5937924861,0.5362126743,-2.1145626657,-5.5195213554,-0.4439586313,-5.0875853692,0.8720828015,-5.555316945,1.7196226061,3.6290497824,2.2492491437,-1.1077865799,-3.1235128673,5.9062747362,1.9785080959,1.9269695634,-0.3909283287
-4.4807168233,-1.3547149537,-0.4043198012,1.8222625149,-1.4264980108,-2.5330655579,1.165288888,-5.4264664401,1.2013841058,-5.4275111766,4.4685633173,5.1731225726,3.4946142552,-0.9030462784,-3.1539684647,10.1923912661,3.1395431855,2.6998926535,0.6162351972
0.1568687701,1.3058244805,2.9333401772,4.7856451959,1.0624753183,2.5174329091,2.7805490614,-3.8511086254,3.5250528467,0.1086880098,9.0487868947,7.6734009007,6.2096068873,1.3073796599,-2.3061076106,13.6629342071,5.9243725256,5.1995875727,3.4395862917
2.2532701007,1.2197516387,4.7068551808,5.9229429133,1.8889360009,4.2261139604,1.1667444955,-3.9757336317,4.0370216768,4.33103371,9.2550059838,7.7658878383,6.0331776355,1.748804491,-2.4576872462,11.6542531193,5.8008798547,5.4287705861,3.8829122379
2.2009619566,0.3829215388,5.5009317439,5.5620716877,1.4226051212,3.1651511141,0.8361734027,-4.8256078716,3.9450580235,6.8452270336,7.0157186584,6.367800585,4.3240008342,1.1605493339,-1.9620746257,6.179245517,4.9415964844,5.0600573194,3.1204279496
0.704693504,0.8178224365,5.9101688197,4.4475514622,0.5767700375,1.1649834104,3.5521436453,-4.0448966386,4.4231926104,6.6396862283,4.6659457289,4.5666626547,2.6780482219,0.3925228977,-3.1105714829,0.7102146206,4.8394159693,4.8620020506,1.9511394804
-3.5530005608,0.3728173493,4.4730786084,1.6646864437,-1.7964683261,-1.4398354071,3.9843324227,-2.9015484477,3.1197760867,0.3178498052,1.1833064681,1.6447904709,-0.0907919217,-1.8502680986,-6.7939181873,-2.9698916821,3.2574359113,2.6766100227,-1.3355472777
-7.6410116109,-0.7333991884,2.6245229028,-1.2112876574,-4.5057534989,-1.88145168,0.8269350319,-3.1894506396,0.9651438177,-6.0259039114,-1.0813688421,-1.1879677319,-2.748317985,-4.3040782799,-8.3033004575,-3.3913314789,0.8742603476,-0.1387679545,-4.3293283131
-8.7524663624,-0.3359370852,2.1348486022,-2.1830175198,-5.2835290504,0.1520405804,-0.7704203649,-4.2195666431,0.760483308,-6.0003833854,-1.0885832525,-2.7344811004,-3.7203357304,-5.384643831,-6.2589489813,-2.0042525165,-0.5055694503,-1.449072651,-5.0394623624
-8.2569289222,0.5290005881,1.7595863889,-2.6302864113,-5.5236423035,1.3101943122,0.6879768477,-5.5124608125,0.5974150381,-2.9083747754,-1.8000885225,-3.7613915251,-4.7049761956,-6.4766855926,-2.9292409803,-1.923771199,-2.1413600888,-2.4512025026,-6.0625852388
-5.6032747939,1.8841314076,1.9466907525,-2.6897796203,-5.8211100689,1.9845724385,2.3970207918,-5.7370799861,0.8160462872,1.3958320917,-1.8715585776,-2.7895487753,-5.0289865074,-7.3846890184,0.566692739,-1.0548067198,-3.682524842,-2.4704079955,-6.6924304473
1.3505783109,5.7865945964,4.5498724238,-0.5234317844,-3.5865475571,4.9470823652,3.9393078072,-2.374438437,5.0438004068,9.1587443318,2.9566505886,1.6993316059,-1.8588852389,-5.3009653941,4.4514419279,3.9188308237,-1.9473798158,0.9591238286,-3.7992777796
9.6788602317,9.9938799128,7.3023661147,1.8166494182,-0.8695407372,8.6584411876,5.3889528441,0.6697214538,10.1831618042,17.4200189555,9.9435292966,6.2552352817,2.3124073006,-1.9748529688,8.2918729502,9.3596730376,1.5564389557,5.4246967608,0.0415224463
15.1381811437,12.2681342599,7.9697482945,1.9614580564,-1.0419392382,10.6707456539,5.8713420507,-0.9544111743,12.5970071416,22.1971164146,13.4035432496,8.5485474627,4.270784885,-0.6584214088,10.2045858174,11.2979217829,3.4198372844,8.0485550051,2.0667168091
19.3636235626,15.1705523642,9.4372261068,3.001717015,-0.0792649668,13.2776778212,6.4848508543,-1.8404303762,16.2361419908,24.6947000386,16.1716595613,11.7510776118,7.0324169333,1.6831299343,11.7650927758,12.4042055853,6.1380473869,11.229099806,5.3203694185
23.6346937948,18.6547076505,12.4283168635,6.1942387076,4.0184129705,17.2781082952,7.1741395638,0.6339337773,22.2798389381,24.8953826372,22.3960609963,16.7912061983,11.6076696137,6.2733806819,14.7121750834,13.4434359762,10.4312270446,15.3233605685,10.123808697
26.2780584571,19.2653121444,12.465775491,7.0946273742,6.0992839101,18.9692474416,5.6049621014,1.1728568738,25.2467082674,22.6929804124,27.0686856065,19.147547819,13.0452783654,8.514169013,15.7191674574,11.4089309893,11.6228254725,16.0585762927,11.4753668002
29.4429240856,17.9639828776,9.5598755681,5.7572440787,5.7902930717,18.2945785537,3.5705065346,0.2779352988,24.7872374235,23.3020693399,27.3693806564,17.9348466381,11.3596996865,8.4381656656,15.5881593069,9.0540201551,10.0525538328,13.9329639202,9.8829983036
34.8926357588,18.1821666838,8.6324450331,6.8621354578,7.4340211186,18.3107266611,4.5184632995,2.2734133677,25.0133307403,30.0454068949,27.8566959304,17.1188416454,11.2306177931,9.3101027153,17.6870255409,10.0897045055,9.0909776905,13.6824577731,10.3875171358
39.1891218815,19.5586741698,9.831727024,9.627656331,10.1224800043,18.8372359219,7.2894393396,5.4254367619,24.696193676,38.5596242803,28.1061445739,16.9510740522,12.1651041707,9.7572415403,19.17679236,11.0850269676,8.204554533,14.4809540806,11.8413016168
40.2348560216,20.4135093119,10.9916108955,11.4308055084,11.4580531927,19.4902018144,10.4620932413,7.1648657486,22.6209176615,42.821735654,25.8848431136,16.2227039725,12.0692998701,8.7318743371,19.0848453957,8.9532489697,7.783367611,13.8675963007,11.7782385334
40.4256171303,20.8226656174,12.4515493673,12.7179692854,12.3066843465,21.7686393609,13.1863590895,8.4067401631,21.4682171916,43.3053739579,24.2001670396,15.5452123799,11.2131316845,7.9571917909,20.648978702,6.3605715621,8.5257004162,13.3623648513,11.509661447
40.5507038219,20.261712863,12.2348986943,11.6914390623,11.1608433452,24.6770058097,12.65247125,7.5240161645,20.5202817435,42.2112171187,22.951870336,12.7553865701,8.0211077625,6.2379064866,22.2351605105,4.5362116197,7.1847184154,11.8289775828,8.94171251
39.4275665191,18.7235115348,9.1611417912,7.3329722056,7.199851855,26.228829676,9.5691016243,3.0989931219,18.0670000408,38.4047176759,20.2606348062,7.1873069263,2.6055708144,2.548382437,20.6449468403,1.5790600896,3.2848446612,7.8401449774,3.5306863954
40.2052368353,19.1084405632,7.6388926342,4.6322614357,5.7377049454,28.0835658029,8.6560025713,0.4605555868,17.1957068362,38.6288343206,18.3797363515,4.290666274,0.3677070778,0.7184092484,20.4343595788,-0.0563563644,2.1393413338,5.8299118489,1.636257284
44.5162438632,21.9414413484,9.5440279792,6.1034142776,8.4760695098,31.2619970047,10.0913953748,2.6536689176,19.2664446267,48.3616604969,18.0690378342,6.5684665551,3.1895628096,2.3407671487,26.8503055953,2.0340501226,4.788521463,7.8790162814,4.4818145048
46.8393461861,23.7389838173,11.44314097,8.0180091422,10.7263452067,32.3545429469,9.9129419909,5.4779866673,20.4672937103,55.3588949414,17.4240046748,9.677646366,6.4817741875,4.0595589846,34.4637270225,4.8364360112,6.0743670586,10.3251809457,6.8914119562
44.972079073,24.0284336971,12.1800371842,8.8952242503,10.8624174182,30.8529011298,8.8823502585,6.9434858645,20.3379221543,51.7435752219,16.9920776591,11.2004057231,8.2096780851,5.0558740408,36.6122563193,7.1163542375,4.9394550511,11.9890489055,8.1331462744
42.4086415576,23.8592367075,12.901275186,9.4047866348,9.5729003588,29.4338510931,9.7726103387,7.7784383216,21.3599874313,44.023975529,18.93052949,12.3667278168,9.2193926662,6.1667884547,34.1127577063,8.7748999955,4.4766381841,13.7930980841,9.5233240642
39.5263233736,21.2002308846,11.9801999179,7.1429149638,5.7321724424,25.9779276239,10.3972595955,6.2084327192,21.295271447,35.7220843156,21.7117411091,12.391240102,7.6494222967,4.9544759947,27.8630604819,7.736007947,4.2607901508,13.3078915869,8.153007712
35.6267835941,16.9966703835,9.0507285641,2.4639662129,0.4654798551,20.5303190467,8.5085765281,2.3828332764,19.0417233738,28.2550538472,22.847466895,11.1896208771,3.8405835796,1.3870292819,18.4394468961,5.2858126877,2.9317865382,10.3233178105,3.5811729827
32.5187261205,15.5702130356,7.9677973535,0.7263909058,-1.5923758987,18.9985540196,5.6632397014,0.3668339973,18.1257139749,26.3621056512,23.5614845917,11.8390873806,2.7191326849,0.3964576554,10.5052066657,5.9232963054,2.7945049833,9.6953350386,1.374026368
29.1507077103,15.910146664,8.5166400788,2.2752091124,0.4115881378,20.4702249864,3.3949944095,1.0728928226,17.2695930535,29.6631721313,22.2862424544,13.2886044906,4.3046829078,2.5534586086,8.6803330008,9.4427299811,3.9015224622,11.1136428865,2.5711330256
22.7693467725,14.0053895861,6.8821423704,2.7948642319,2.5976826074,18.8603403017,1.1562966813,1.6610137479,12.7134112899,29.6758821073,15.825350124,11.4044739383,4.3000242622,3.6707588795,10.5405687949,10.4535829773,2.8613203967,10.0246691631,3.3747545147
15.862677999,10.5345999882,4.4328680989,3.0782418892,4.2315855347,14.1492697768,-1.44536294,2.2025493202,7.6751055651,23.8025005156,8.1101844656,7.4780007548,3.6089095956,3.8975721112,10.9300826415,7.6977999636,0.3624429309,7.9849418435,4.723965222
10.8484226466,6.8081337181,2.9337147918,4.5790595404,5.8897940621,8.7730662538,-2.7796363481,3.4048595206,4.6994117425,15.7067011551,2.5808768609,3.8101849012,3.5921159225,4.3961306439,9.4831342748,3.0083425399,-1.8381438605,7.0272396515,7.3582970327
4.4309575966,1.6323927051,0.470808238,4.3760915972,5.2308998947,2.7433896789,-2.674863012,2.7413925108,0.4202359617,4.4623337893,-3.4446323548,-0.2885052864,1.9762163188,2.8848147008,4.6935834786,-3.4211049504,-4.8733886241,4.5543582665,7.4584659394
-3.5675105823,-2.8232374968,-1.5213016935,3.4648160597,3.4773461335,-1.9692590477,-2.0782477102,1.0047367691,-4.2039671977,-6.72347985,-8.8607598909,-2.6479713609,0.710430903,0.7613381983,-3.7104341126,-8.7591828015,-7.0306852654,1.7326516079,5.8920463319
-9.0865562125,-3.8155274237,-0.3940811644,4.930479009,4.2798622945,-2.5027496053,0.4876940448,1.5434037929,-5.7812347293,-13.6597210615,-9.9232746651,-1.465958208,2.448749559,1.7773636328,-11.0990880439,-10.4127679411,-6.1833633601,1.8485240984,6.5951340483
-12.9566447071,-4.4760216123,0.8669356433,5.5720516842,5.1702445781,-2.0428637614,2.7058684941,1.5719696892,-6.9540772576,-20.8789451576,-10.0554854372,-0.6441697948,3.04445785,3.5345914425,-18.0174261801,-10.8356199491,-5.4958757924,1.9880293308,6.6595739394
-17.1142464397,-7.1689659848,-0.5321393966,2.9538437699,3.2067598311,-4.8540998652,0.0214280967,-1.3430881781,-9.4969115656,-28.9483557326,-12.6346760506,-2.6395127996,0.2129922338,2.2743162865,-24.5404122044,-12.3603271422,-6.9877570311,-0.4206298301,3.4543547939
-18.9069091186,-8.9497070117,-2.1388039159,0.6512457765,1.1594563315,-8.430381465,-4.6288908712,-2.4018096897,-10.2486917897,-32.3717213328,-13.4031325764,-4.4459642957,-1.8256516249,0.0631579252,-25.5758769676,-12.5609250177,-8.2302669287,-1.7865024413,0.9000161535
-18.584170929,-9.3144503732,-3.3007827957,-0.7724881156,-0.8725648803,-10.6363786643,-7.7918568512,-1.3656073483,-9.6604556728,-30.3887552771,-11.6939606081,-4.6437984646,-2.4055490381,-1.7681320642,-21.70430889,-9.6388659725,-9.1125322185,-1.6487726662,-0.619385526
-20.4728381471,-10.6636345899,-5.9145700121,-4.2559439325,-5.7058230793,-13.2556231925,-10.6183786509,-3.7159921846,-11.1257589773,-26.4420268789,-11.8024174325,-5.2620858686,-4.9426109392,-5.2890905548,-16.5261278094,-6.6878532703,-10.5364295222,-3.4284368875,-4.3686532006
-23.6469232753,-11.427670215,-7.6742128317,-7.2247062481,-9.5879661733,-14.8124412954,-11.1535029993,-6.5114273442,-12.284021157,-23.7462658813,-11.6071974143,-5.8480020355,-7.4560799692,-7.903889028,-12.8011192887,-5.4104342052,-9.9227354849,-5.253630526,-7.9879797297
-25.1592096101,-10.0292042023,-6.6108088488,-6.3486496895,-8.6014820918,-13.3932350143,-8.0090364819,-5.1772587193,-10.4121189592,-24.4724354999,-9.1207256255,-4.9517992446,-6.9346877364,-6.6328142432,-15.1966408458,-5.4945966377,-6.9428637801,-4.8957762167,-8.446710733
-27.2295445888,-9.2549172638,-5.7928146286,-4.8934094473,-6.8990543673,-12.1917516381,-5.2969159851,-4.3017359153,-9.1461304062,-28.1170179771,-8.8621569792,-4.5561193784,-6.6057539022,-5.3262937368,-21.4569683674,-8.1100125027,-5.4702935149,-5.3064152525,-8.2398553966
-29.9154310595,-9.955162487,-6.3250235434,-4.9026932563,-6.4861000504,-12.6941286429,-4.2206807865,-5.3521300737,-10.083390718,-30.5787490613,-11.6597417216,-5.7207509735,-7.7102943815,-5.1411214516,-20.3507347623,-12.0776986198,-6.3686859295,-6.8615465536,-8.0789724782
-29.8273777849,-10.2843636816,-5.6929507981,-3.592705025,-3.8856178206,-12.6333400748,-3.2452290521,-3.8441937441,-10.6416637421,-29.6990113625,-13.8382845578,-6.5690721183,-6.879640696,-2.5114950735,-9.2967967286,-12.5106761796,-6.2932363196,-6.3185458345,-5.6623685283
-29.0322926427,-11.2723229296,-4.4039730931,-1.4542910645,-0.3540456757,-13.417456906,-3.4876622664,-1.1118157571,-11.7934552823,-28.5451260977,-14.9167148413,-6.7097632643,-4.7513777347,0.8216691112,-0.8119911464,-6.9983232597,-4.2782174413,-4.2460143725,-2.9339025133
-30.2449793863,-13.2145504703,-4.3729288344,-0.7347317595,0.8877787316,-16.4005851376,-4.1020206205,0.0558306447,-14.3479794789,-29.345003181,-15.5361793413,-6.3788438549,-3.3352390803,1.8646006298,-2.7546910875,0.3895933029,-2.0488569628,-3.4277207281,-1.7269525973
-31.2294102592,-13.3867136535,-4.2370231428,0.6162814529,1.6886178252,-17.6901820509,-4.5375864066,1.6733867099,-14.9626768525,-32.0836836011,-14.3069532352,-4.8378709001,-1.5241988787,2.2742827571,-8.4772676796,4.4560189079,-0.0002412204,-3.1778158933,0.4310608419
-31.9243827158,-13.0016893832,-4.3059232318,2.345286776,2.4314310942,-16.6845373319,-7.6627573614,3.0103781331,-14.1834434168,-36.8244687097,-12.8861510044,-4.0158792909,-0.6845546611,1.8718715779,-13.734971119,2.3696370798,0.0659187321,-3.1803114939,2.1461639007
-33.6719748679,-15.0431372062,-6.9164099894,0.9634506556,0.6048972618,-17.6509325381,-12.3393835559,1.2219850064,-15.2594796491,-40.4791560408,-15.0232732219,-6.3397736185,-3.0161130909,-1.156630909,-21.1607043029,-4.7854194067,-3.9298297337,-5.3262565118,-0.6066795481
-34.2750459504,-17.5497954661,-9.8509766556,-1.6382083578,-2.0284929045,-20.4413107037,-14.3085490272,-1.424273496,-16.3656067163,-39.8020408021,-18.4344291444,-9.1728917041,-5.515262718,-3.9767058058,-29.575921183,-10.9827807372,-8.1447553937,-7.4306197677,-4.537620315
-33.0844130718,-18.8229966488,-10.6693923274,-2.7228956162,-3.2670672643,-22.0903612332,-12.899939064,-2.6032144896,-16.1563463503,-37.1205078907,-19.1512744205,-9.5099355204,-5.2636637184,-4.1389566961,-35.532255683,-13.3005534404,-7.6549642595,-7.2069828666,-5.3607319804
-33.0440419007,-20.6433079951,-11.4372419974,-4.4531137328,-5.1157814431,-23.6941216324,-10.4726999559,-4.3970137562,-17.5646386731,-36.1062425993,-19.2144929675,-9.4491505805,-4.7337063251,-4.6821102965,-35.3838682946,-13.4970398601,-4.2009226871,-7.7628716164,-5.9750575512
-34.209640473,-22.1361900119,-12.4241434287,-6.871618031,-7.3676409389,-25.7524784997,-8.3162413671,-6.9880726872,-19.7615952782,-35.8199187771,-20.5344964242,-10.6452977226,-6.0507806359,-6.320626668,-26.9988254077,-12.6848607997,-2.7827503464,-9.6450041305,-7.4225587751
-33.0368134121,-19.9009164695,-11.236267405,-6.7560153492,-6.5304580268,-25.213833731,-6.6524408439,-7.434839739,-18.7539773271,-32.9448021509,-20.5127249048,-11.1240953105,-7.277400251,-5.74226492,-15.0331830402,-10.431697212,-4.5315013706,-9.655212543,-6.8250717565
-30.3331283721,-15.4719084512,-9.4707428514,-5.1257254676,-3.0337760806,-22.7962250919,-7.7713343981,-6.1208386497,-16.6219050622,-28.1129232414,-19.54217021,-11.5010589813,-8.0397231511,-3.9143334793,-8.3480296327,-7.0519814111,-7.943452866,-9.3315613883,-5.9069445207
-29.4883231834,-13.583568959,-9.9987322383,-4.6975426755,-0.1690936958,-21.3518195047,-11.0497308985,-5.2161387641,-17.1012095294,-25.1580085757,-20.2107192187,-13.6761837164,-9.7111237116,-3.2851882271,-11.7314953669,-5.808572258,-11.9946047246,-11.5861808376,-6.8890696834
-28.8562079664,-14.1080542378,-10.899651517,-3.6579806268,2.3597721368,-19.902306802,-10.4358056221,-3.6773255455,-17.8506475245,-25.7287538042,-19.8918774992,-14.7185874912,-10.0130382123,-1.8397624047,-18.5455320638,-6.5304843762,-12.9535986674,-13.5892309619,-7.0355961332
-27.8541341467,-15.6585233357,-10.7719421603,-1.509097036,5.0335500596,-18.4433847117,-6.4751962774,-2.4261371259,-17.8748503878,-30.0833070891,-17.9850356095,-13.5705737896,-8.1685944483,1.119187621,-20.5269446671,-6.4245384188,-9.7118985068,-13.644710952,-5.649145804
-29.8462761501,-19.2531726323,-11.7120848796,-1.576611785,4.8031960171,-19.2873224873,-7.0433432774,-4.6791541681,-20.1480568458,-39.0535297198,-19.0133091632,-14.1799141645,-8.0824643057,2.4786323325,-19.767161237,-6.7572100304,-8.3045658166,-15.0462263623,-6.2991651091
-33.1190256289,-22.4241733927,-13.1323624179,-3.3748013148,1.7056819267,-21.3216684982,-11.2513013596,-7.4990223982,-22.9617534233,-47.9678300869,-22.6171522636,-16.8826343028,-9.8845727043,1.8938254357,-18.633910611,-7.9754222005,-10.4209172275,-17.4713473187,-8.746949561
-33.4645905236,-22.3287325048,-13.0122315258,-4.2972734821,-0.9499051292,-21.4635402105,-12.3214440898,-7.089522618,-22.9493587962,-48.4745482227,-24.9836246469,-19.3737305855,-11.0964708869,0.7076598131,-17.1549559686,-10.6827562628,-12.5481254981,-18.0788740734,-9.6534926637
-33.0412080923,-21.3017675168,-13.0039154156,-5.7170685831,-3.6525782028,-20.4997962358,-11.5353200876,-6.4708290176,-22.2466629794,-42.6652113195,-26.3961811172,-21.8944154699,-13.1821237885,-2.8074459398,-18.6530997252,-17.3805458799,-15.0975324652,-18.5846114651,-10.3223156727
-34.2454213581,-20.585328836,-13.9465758828,-7.872073837,-6.6455753768,-20.1191261833,-11.4517622394,-6.8047744425,-21.7018811206,-38.5903271507,-27.0933844272,-23.5249150007,-15.8963358628,-7.5123653953,-21.9232172578,-25.1072624092,-18.4404318349,-19.5350326708,-11.6102479884
-34.4952337986,-18.5378589258,-13.347021955,-7.6925296199,-6.5208994881,-19.6876623411,-10.1827979557,-4.4146845961,-18.730203203,-35.8352475836,-23.7950978869,-21.7775825849,-15.7191392658,-8.876481623,-20.8998876917,-26.6255640756,-19.3426548973,-17.8513218168,-10.5877135536
-33.5894181247,-16.2208126375,-11.5433460674,-6.0819517954,-3.9868222336,-20.4695128174,-8.3652459972,-0.6596563367,-15.461959835,-30.6906295742,-18.2410622527,-17.807833697,-13.6083349687,-7.7614026913,-16.0888066526,-20.2047908285,-17.5647403349,-14.9838541949,-8.9574299837
-32.581729537,-15.0409104659,-10.2014508438,-5.6193311967,-2.5109222678,-22.3484255017,-7.2788070153,0.6420352894,-14.7468706184,-24.5569236508,-15.5865920505,-14.2891924725,-12.3589673589,-6.9312597529,-12.782553691,-11.0486628343,-15.605559784,-14.0427128558,-9.0729938014
-29.421340709,-13.5663117358,-8.040401011,-4.3642828531,-1.3054051501,-20.9222566686,-4.8652039416,1.9015264352,-13.8401038727,-19.7168522998,-14.2057482878,-11.3247604615,-10.7763487041,-5.4983978276,-11.4351749705,-2.3272985726,-12.6865290029,-13.0627626175,-8.5283302932
-25.3439638654,-12.5502881112,-6.7202410691,-2.7429639062,-0.4753180678,-16.3224684024,-2.1963402846,4.1810378586,-12.3904772505,-16.7091048042,-12.8972867444,-10.1111005695,-9.4198430441,-4.4469093353,-12.6399861643,2.8869222939,-9.8329712766,-12.0255030995,-8.1592997815
-24.1184964186,-14.5294897699,-9.5613485096,-5.0989416697,-2.95277504,-13.7283397825,-4.0682688117,3.470865393,-13.9251605115,-17.9154245238,-14.087837237,-12.3813695072,-11.4108023022,-6.635961686,-17.957419582,-0.4052814272,-11.1135127116,-14.3092479036,-10.3322138946
-24.3270899562,-17.0135510502,-13.4981304694,-9.4727112722,-6.603966888,-13.2908442319,-7.922137081,0.6679761417,-15.6782604202,-22.0334643429,-14.6622698002,-14.8089678,-13.8270247522,-9.7230581051,-20.0051478514,-7.4178143472,-14.0438554958,-16.9943639769,-12.3963925238
-23.3792714954,-16.6096823719,-14.8371245632,-10.984727988,-7.5195602796,-12.1534915035,-9.046672992,-1.2826256234,-13.5706622901,-23.1505596459,-12.5184917994,-14.1706174831,-12.4739216044,-9.526564466,-13.4503675808,-10.5814795105,-14.2265702233,-15.8209955417,-12.3736529989
-23.6996387158,-15.6750881961,-15.5367909933,-11.0974313329,-7.7757143888,-12.1615701638,-11.1284016932,-4.245041629,-11.9833225867,-23.5756672707,-12.5230640673,-12.9209622789,-10.5362110825,-7.9493858577,-6.2132347714,-11.1905089762,-13.44767877,-14.3131137041,-12.4345183203
-26.7813158775,-16.2967095246,-16.7495023285,-11.4904751601,-8.5134164135,-14.4332717828,-14.6512111005,-7.712080673,-13.7930548509,-27.5283687177,-15.8289199913,-12.6889628228,-10.2502092104,-7.2949079041,-5.7432559972,-10.0854128336,-12.8777595302,-14.8680229258,-12.5716754698
-28.947983324,-16.4097761027,-16.1900139288,-9.7181423891,-6.8960913821,-16.1267244898,-14.8610063753,-8.1531634984,-15.1385657655,-30.24231437,-17.9673271946,-11.6065631605,-8.5979805034,-5.2764842344,-9.3799174912,-6.4478613707,-10.2472206457,-14.2919441384,-9.8751049072
-28.3291593671,-15.6189134352,-13.8543163451,-6.5055579371,-4.4062374087,-16.608650929,-12.7775897839,-6.8659755733,-15.3106664364,-28.680180956,-18.083537648,-9.9742549545,-5.7562421564,-2.259222232,-11.594419661,-3.9581781419,-5.510920882,-12.4195320994,-6.1535115909
-26.5856171208,-15.3429849855,-11.917428293,-4.7273023963,-3.643116318,-17.0523930508,-11.2490280716,-5.8010211967,-15.7055811563,-24.6169847481,-18.0864248933,-9.4466245343,-3.9985735681,-0.4075529155,-11.6108954126,-4.7142256564,-0.8294483426,-11.2527739444,-4.6964566325
-22.6506920818,-13.860129414,-9.5768842284,-2.7526502584,-1.9526242426,-16.2263228595,-9.2778749551,-2.6068355665,-13.7669051536,-18.3177108306,-16.4636107143,-8.3083535423,-1.885824244,1.6997972036,-9.4878228897,-4.7819333069,3.0017712891,-9.1627402095,-2.6213190463
-16.1785497956,-10.5433505978,-6.1398120286,0.1269800066,1.3452617418,-13.2359021331,-5.9709338615,1.9077797259,-9.4828389597,-11.5719778904,-12.7259862075,-5.7534084143,0.505688122,3.8050450504,-5.1738881563,-3.8755883589,3.9869429462,-5.8832959839,0.6359401914
-11.8623548407,-8.8273530481,-4.5431245439,0.002117798,2.0217360395,-10.933775557,-3.6159175281,3.1356346858,-7.4517038035,-9.02718358,-10.5592981203,-4.8833195537,-0.1714264437,3.0458614937,-1.944833219,-7.9149017866,-0.3233565654,-5.2506550058,0.2480687124
-10.7196597365,-8.7211226286,-5.038814238,-3.0567006378,-0.3022521616,-10.1833345633,-3.4540786514,1.6309515409,-7.4051557628,-11.2680643676,-10.0726310247,-5.7237220687,-2.8930240865,0.3304614056,1.0610233304,-13.4036079704,-5.759106463,-6.8236675369,-2.5598932077
-10.4143897766,-8.097493402,-5.2652396694,-4.7744764592,-2.294699802,-8.8895271979,-4.9183271415,1.4261024278,-6.4758192923,-13.4478802226,-7.9257290459,-5.7961172201,-4.190564073,-1.3588367276,4.2973832947,-11.3355737045,-6.8649143033,-7.3621612839,-3.757864429
-12.8423115754,-8.4118536504,-6.2413581439,-5.0937296921,-3.7604770118,-8.6224440197,-7.8863871102,2.5766531945,-6.5824720647,-14.1454151911,-5.2250002073,-5.8919153389,-4.3909548942,-1.8886347426,1.1392483122,-5.1750645103,-4.8290525596,-8.3409160611,-4.7391483808
-16.8639972311,-9.7272466491,-8.3137448067,-5.4302247528,-4.8040330312,-9.8472006228,-9.9291242007,3.2288444907,-8.3142958436,-14.9569548839,-4.1573722054,-6.6889350314,-4.3823783574,-2.1072604043,-7.2602211892,-1.1840336399,-2.6686241764,-9.7239519546,-5.8891479995
-17.9056608329,-10.357402061,-9.3964262484,-5.1148436369,-4.3254490732,-9.9544865255,-9.3116802485,3.1085938593,-9.588350945,-14.5981053662,-3.9753339108,-7.4233875709,-3.8056108377,-1.6560038761,-12.7830914091,0.0290920201,-1.5037356548,-9.3273159806,-5.4260597124
-17.8417090703,-11.4737182178,-10.7192672439,-6.022172417,-4.3532326945,-10.6244936202,-8.0285965543,0.868457399,-11.6779953834,-14.787478736,-6.2277291043,-8.8483878247,-4.1845393204,-1.8705971949,-14.4132975624,-4.4276687671,-2.5693724076,-9.8495161286,-5.4005823247
-18.8115019824,-13.0717772837,-12.9704616802,-8.8590439321,-6.4785642408,-12.844160975,-7.3202404477,-3.1027887582,-14.8592560452,-17.4665166059,-11.1958790858,-10.6716028582,-6.308266009,-4.0407328702,-11.7455242833,-11.6605100211,-5.4320694306,-12.5925992794,-7.2603214607
-16.9139835982,-11.7265622452,-11.8335819641,-8.9626509921,-7.0240988617,-12.2033626113,-5.3018613424,-3.5589772978,-14.73514139,-17.3070576026,-12.7102140786,-10.0300613403,-6.4799798932,-4.5807273746,-2.1877428031,-10.9231443362,-5.4316026871,-13.1104853308,-7.2222805781
-11.8615891377,-7.5169298945,-7.037162533,-5.3245615745,-4.0373427711,-8.1287604858,-1.9591941469,-0.1111120665,-10.9306005683,-12.5894880269,-9.61873749,-7.0399591474,-3.4268643989,-1.9168065214,7.4557884541,-2.6712004883,-1.5017177676,-10.452692536,-4.0793077282
-8.813783812,-5.0769458634,-3.9493438182,-2.8871076067,-1.5945500233,-5.5367538715,-1.538594686,1.5151211895,-9.0510123992,-8.4080348428,-8.7805792571,-5.6503345104,-1.2547457042,-0.6189606115,9.5983490022,3.4518164593,1.0590695033,-9.1472537056,-1.9406516829
-8.3577602206,-5.1997219926,-3.2998056081,-2.6041918596,-1.1139530539,-5.3783943667,-2.9916507633,1.5680986916,-9.6296805721,-5.993927033,-10.436077641,-6.2157255153,-0.4715023117,-1.2253578665,8.884026831,4.7304389817,1.8325186755,-9.1582660517,-1.2801367202
-8.2204362996,-5.2425184344,-2.7779637494,-1.7226725219,-0.3520741405,-5.1939618816,-3.0072998209,2.6941624738,-8.8938345629,-4.2644719937,-9.0532258092,-6.0231683744,0.7746517565,-0.5560323984,9.2924750784,2.7142389621,3.7081783715,-7.2796065087,0.2937718152
-9.2519416281,-5.6418162292,-3.3688882765,-1.4510638988,-0.2932236692,-6.1063929489,-5.3143357244,1.6664394237,-7.8705666278,-4.383859806,-5.3662867471,-5.6271828392,0.5353703473,-0.2445041175,7.2268911665,0.1423536623,4.5227348848,-5.6979559582,1.0561132076
-10.4140037409,-6.9265492279,-5.1959102009,-3.0669325015,-1.8762233754,-8.6177616543,-8.0588687746,-2.1126099233,-8.152623479,-4.4964132345,-3.5304912329,-6.0740121321,-1.5602377005,-1.6336617717,2.5102803152,0.7484328817,3.42328691,-6.22866356,-0.5362245549
-8.7035059801,-7.6007737226,-5.8208911536,-4.1744251438,-2.9357247498,-8.3543624002,-4.7656780645,-3.3613749273,-7.7343141072,-0.3965637068,-4.1387518184,-5.7245388141,-2.329032204,-2.3017063542,-0.6713615373,3.8083967951,3.6715298902,-6.2551848203,-2.0445174886
-5.9455160884,-8.075672721,-5.4903010279,-4.5780062384,-3.1378350826,-4.7039456613,-0.0658024787,-1.0528250496,-7.1865615019,4.8224741329,-6.1588567769,-4.7279060128,-1.6232767611,-2.0073743365,-3.0298536648,4.5981905841,4.7720448538,-5.6663921959,-2.7882194831
-5.4326519254,-8.9187282127,-5.8228457467,-5.3385418475,-3.6720717873,-2.6097480561,0.5388434105,0.1096614174,-8.5048479599,4.3041954223,-8.2628575402,-4.4850982906,-1.7322543021,-1.9614715061,-7.4814947521,-0.0696753311,3.7707161451,-6.0561341126,-4.0458481037
-5.8582792685,-8.2753617622,-5.2229797648,-5.026578839,-3.3055908228,-2.4586201398,0.9243799877,-1.0148889709,-8.7978493438,-0.6487566833,-7.2695795345,-3.2107115007,-1.7155556832,-1.5241666353,-9.8163502502,-4.696844944,2.3195958616,-5.8524694923,-4.0206038017
-5.2158983883,-5.972597518,-3.053539067,-3.6399141885,-1.8849111619,-1.7577226102,3.1886357995,-1.5045578879,-6.1457162595,-4.5804520758,-3.5962617252,-0.5764983712,-0.5197760935,-0.5712409854,-6.507354427,-2.7165798835,1.8550873087,-4.1940404639,-2.201531972
-4.1649851216,-4.4275567592,-2.1130863353,-3.4189494984,-2.0633342349,-1.4854877706,3.2305514936,-2.2134319279,-4.0883026569,-6.8426247479,-2.9690717022,-0.1058940273,-0.3438427197,-0.7868328248,-2.186139418,1.5542415319,0.0100296399,-3.579279664,-1.968987859
-2.4899359751,-3.5352376541,-2.5648266899,-4.5221071006,-3.4887583161,-1.2564436418,1.2063686348,-3.6606417486,-3.7609551066,-7.6443214938,-6.0404688783,-2.1218319633,-1.6477903402,-2.0627954879,0.7973470464,3.2244549494,-2.0462921037,-4.416762978,-3.3015827536
0.783020952,-1.1298287922,-1.6814240435,-4.6691047453,-3.3648712461,0.8690567458,2.4098124541,-1.9826984335,-2.6493328704,-5.1831185163,-8.2961150795,-3.8191017668,-2.4888811611,-2.1732371084,3.9240393683,2.5830709698,-2.0756519878,-4.1471168294,-3.4675743772
3.5288820033,1.9323474636,0.0710853768,-3.6257950953,-2.3136382133,2.9753643543,5.165314357,1.708192319,-1.3123438715,-1.4860681072,-8.6456181071,-4.7536228589,-2.8422746044,-1.8138925548,3.6664327793,-0.118199296,-2.5219736091,-3.0151758661,-3.3412011675
4.4666606746,3.4218892995,0.5305542265,-2.9836675897,-2.2153627638,3.584088724,5.3712508111,3.2252900473,-0.9732316794,-0.2037215269,-7.0935867058,-4.5678202331,-3.254316015,-2.8989354335,-1.9243655925,-2.6887882113,-3.9577104214,-2.4883017342,-3.7625379467
6.3375125603,4.1220750991,0.8787366252,-1.8593494241,-1.9901263543,4.9829564009,6.7631570874,3.8498243547,0.7590820496,0.1775866114,-2.451675396,-1.661506121,-2.419628501,-3.8847176937,-5.5420520215,-1.8433292158,-3.6001158441,-1.0694044357,-2.9324253232
8.1909029562,4.2238340443,1.3344867963,-0.7962489482,-1.7439314417,6.4573756987,9.7018491991,3.7236307595,3.0911944678,0.5740809126,2.5166077179,1.4749670994,-1.2660923719,-4.1878250028,-3.6674005088,0.6978580027,-2.2576993995,0.4740773542,-2.2865495172
6.6401202977,2.0477089195,-0.1279838027,-2.7053197336,-3.7280827268,5.2809553207,9.2235108904,0.3749688986,2.4063782574,-2.2618346307,3.3253475059,1.184425118,-2.7649254091,-5.9056769012,-2.1902277216,-0.398569693,-2.5216541607,-0.7345541853,-4.248581185
5.4421267922,0.5459477593,-0.7747896576,-5.227714784,-5.8775315279,4.075443471,7.5239667263,-3.0060659957,1.9432371086,-4.0005358412,2.0058885644,0.1017226888,-4.4291835703,-7.3504619498,-0.8186009676,-3.6543611896,-2.1100587436,-1.7698408915,-5.3969389601
8.5653358168,2.5947395049,1.7637956448,-4.8598566044,-4.9950835743,5.0810151265,7.5024806282,-2.8186992165,4.5557069204,3.4646532525,2.9086521456,1.1065517285,-2.9153642475,-5.8544656573,4.6928337638,-2.5960863679,0.8156505608,0.1373685786,-3.1294444807
12.1271506719,4.5308998817,3.3533954585,-3.9992987099,-3.2445900201,5.0036067193,6.4901076889,-1.2524049033,5.8305814704,14.3233746555,3.7378827574,1.856196339,-1.3887603927,-4.1260320216,9.0983424754,2.3536205825,2.2823678135,1.1848303173,-1.3619941699
13.6064835055,4.5641209199,1.7964489252,-5.0213979149,-3.3142356497,3.2578251158,4.3386227385,-0.7021421326,5.0405025009,19.6106685429,2.3624845033,1.4958343659,-1.7354447658,-4.5997903668,8.2714122567,6.1612938691,0.9753994425,0.0661439459,-2.1989270616
15.2095827345,4.6729358497,-0.6794924715,-6.8407046878,-4.8272157793,2.8731077245,3.6415165648,-1.7804906157,5.4641645811,18.7609724214,2.6118798616,1.524549473,-2.1863018857,-5.8049107809,6.1340393344,4.9109838126,-0.324527724,-0.3806327674,-3.4681088242
16.0809813365,4.1783222727,-3.6998371283,-9.0342965252,-7.7331403487,2.5980030289,4.1157251217,-5.4221974475,5.9952611022,11.3261956549,4.1127370603,1.1376653331,-3.524193662,-7.14215708,5.124817441,-1.332171982,-1.8298952593,-0.6270821622,-5.5187357219
14.6200251808,2.7996593926,-6.8694521682,-11.3505935543,-11.2436829806,0.5216506355,2.8529379872,-10.6702068718,5.3692845038,2.4738443858,3.3808909237,-0.061572374,-5.6822086698,-8.8913643442,6.9911663944,-5.2354754875,-3.6159891566,-1.4359146286,-8.5785895212
13.3646029721,3.088280386,-6.9536913748,-11.1999063434,-11.4484563243,-0.3504874071,0.0942484065,-12.1797540028,5.8752985863,2.0537166481,3.6494990546,-0.2376480609,-5.3477262831,-8.7564430098,13.7376280339,-1.8568318525,-3.4112283272,-0.4058056773,-8.8022193665
13.8848999164,5.2138859496,-3.8512142445,-7.8608127031,-7.4769079473,1.6421316297,0.0117688553,-7.2243940781,7.74164147,9.5058953057,6.5599809172,0.5771993269,-2.6216645728,-5.6263933094,21.1486472074,4.2344452247,-2.1283841336,1.8803253856,-5.950380373
14.5605854587,6.6371455292,-1.0025903269,-4.5972274048,-4.159396202,3.9252280762,2.602070996,-1.5472041295,8.1692550047,15.9342969703,8.5035807689,0.8328174188,-0.9521108423,-3.4177033258,23.0052995263,7.7216926732,-1.9930824911,2.3978168076,-4.4745164656
15.1968086102,7.1057987837,1.8217732815,-2.5995788999,-3.1861302401,6.2193461001,5.1708761021,0.4652666005,7.402299499,16.1610654096,10.2898631509,1.8451882777,0.0480327741,-3.7487645221,19.488728894,8.9324611291,-1.1734089754,2.7405839737,-3.9931720349
16.9392178186,8.0314899508,5.8294983951,-0.4450950586,-2.2077094396,10.0863978063,8.0838848132,0.7238434211,8.0197379101,13.4958535118,13.5275988343,5.3049483935,2.3811512166,-3.764687582,14.1459439673,10.5584011944,2.3644272375,5.3063356929,-1.7519804161
17.9253649361,8.2258275871,7.9124014879,0.6293317713,-1.9075391328,12.4052733018,9.2552418565,0.0782404228,8.7757019088,12.740240504,14.9726670234,8.3121624913,3.8404248859,-3.7913825541,8.4804171373,10.9116382572,5.4620459783,7.349773352,-0.3004361861
16.5866817209,6.6708204353,6.7342465809,-0.4064145215,-2.677831378,10.5604532412,6.8107369599,-1.7768303256,7.9585067668,13.97602594,13.3607975046,8.1181840819,2.835921035,-4.8554449376,4.7328046533,7.109917642,4.2766173319,6.7082180724,-1.2901829312
15.4719919906,5.8936410911,5.107351084,-0.9524003687,-2.0585313926,8.0834450111,4.3698261358,-2.5267734693,7.7892069425,16.3506655105,11.6322747533,6.8042520147,1.8951625908,-5.071432092,5.4700590092,3.6427188833,0.7238935221,5.7880105828,-1.7645638076
15.456848375,6.3505660262,3.640848024,-0.0311785879,-0.661591295,7.053161855,3.2903893229,-1.2072971334,8.3172048937,18.7799229584,11.0325711532,6.1830577293,1.8913252947,-4.1696832789,7.9362398698,5.3472404838,-1.9783103154,5.5040290151,-1.1029398009
15.4424511494,5.7847636725,2.0719024638,0.673857735,-0.6944545767,6.4002767855,2.742636961,0.1347057116,7.795085141,18.5805410354,10.7736720353,5.9434029184,1.5621867622,-3.2397707742,9.0425930664,9.5192569444,-3.6803251392,4.9229873015,-0.463138768
16.7699699388,5.9735905094,2.9068461776,1.7980986805,-0.5272118087,6.9569385216,4.5608136588,1.7689883015,8.5234828823,15.4413594176,11.615688475,7.004954344,2.4093171406,-1.6307408856,10.85756093,13.3586271288,-2.8453221781,6.4626301876,1.5314205284
19.3218023828,8.7339173872,6.2305584328,3.6721604216,0.8396480575,8.4830732195,7.0642988356,3.485919909,10.7260756777,13.0524476631,12.6363652898,9.1929956334,5.0242307037,0.7656471768,13.5392224507,16.4800800542,1.0032341684,10.152521523,4.5026452306
20.8633008409,11.0719159258,8.4987121728,3.7702095198,0.6933229873,9.5466886645,5.6923949707,2.5262223967,11.0221631201,15.1939161096,10.8593050052,10.117673671,6.3277368702,1.4597866227,14.0126275922,16.8858715565,4.0558263443,11.2634117015,5.170927603
22.5817220067,12.5508139315,9.84379165,3.5101245329,0.2114363956,11.6162616723,4.2346394257,1.5082314244,11.189726268,21.4561763812,9.7930466169,10.8401073072,7.1625917523,1.2312899791,13.6756232788,14.821455304,6.6370279424,10.9500101322,4.7918686161
25.4192032302,14.8826984839,12.3635060703,6.0006648762,2.7551525338,14.7215067078,7.1604047385,3.616152833,13.8581536402,25.393507915,13.9368249218,13.4405469759,10.3082372666,3.5745236028,15.2153593846,13.0726685208,10.6046255346,12.8761917152,6.5960439502
25.4019063518,15.6319827553,13.3342744812,7.9845423589,5.1079022919,15.5730941508,8.4717929971,4.5312495838,15.5920616573,21.286878926,18.4824699005,14.8622629001,12.5189788496,5.8800547775,15.0744513727,11.6922660606,12.2469337102,13.6440682888,8.2986174787
22.2857335049,14.3277055828,11.5063806076,7.1492747014,4.5210649243,14.2151611323,6.4243374448,2.3067583423,15.1792489668,13.715045826,19.6081032708,13.6280652597,11.5598838367,5.1802617746,12.1445120204,9.7091082046,10.5636013189,11.9607908177,8.3394071536
21.0248248885,14.3289554525,10.2986131876,6.4176916235,3.9919927892,13.931092426,5.8724264928,1.1171053855,15.9791160976,10.7739606044,19.543285082,12.8033857288,10.2740879156,4.0870833815,11.9240221713,8.0396410542,8.0702769328,11.9129311396,8.720538167
21.3720777674,15.142647835,9.5904682983,5.9054408535,4.1770615571,14.544631023,5.0587652619,1.0204177842,17.201295325,13.853474477,18.4306913329,12.4325944164,9.1497850974,3.0914633858,12.3047716411,7.5760105151,5.2253854682,13.012702196,8.6007327966
20.5862831681,14.6150267032,8.0396499039,4.4045310833,3.7563546455,13.6209053947,3.1261615656,-0.731897794,16.7420827461,21.6625902367,16.1117015538,11.3287838985,7.2263588443,1.2468169073,8.222153257,7.9348646991,3.1337751608,12.9439530024,7.0530433767
20.1885195871,14.1948875503,8.4456182945,4.1223102847,4.4328361294,12.2928909213,4.2121261791,-1.5243028756,16.8369830429,32.3486323543,15.1260419199,11.1045886382,6.4250116551,0.9929187667,6.4769261642,9.8306316054,3.7357472619,13.4258892952,6.8595733545
20.3252960192,14.2565043834,10.8908130129,5.0971111226,5.7980556162,11.5872707779,6.2239698581,0.4639671135,16.8639095448,39.2733262127,15.5327484081,11.4492976661,6.9105587158,2.258746342,11.2255885439,13.423024076,5.4681192097,14.388651059,7.8110242664
18.0700948074,12.4520884607,10.9704168348,3.8652436201,4.0626926687,8.9075103874,3.1972043043,0.9754750121,13.4089335674,35.5898989077,14.1773291037,10.458034471,5.6815870161,1.1655740087,13.8238404428,15.0036146906,4.0969960957,12.6487616907,5.9760121702
15.3974646364,9.7594542712,8.5952624194,1.1845726435,0.5174391634,5.6970161065,-1.911477045,0.2529743648,9.6318417931,24.1630709962,12.2898711609,9.3618548788,3.7172262854,-1.5730897383,10.6685459074,13.4211317983,1.7394133393,9.4813587513,2.9892509674
16.0821083002,8.8858123892,7.4259958027,0.4818324513,-0.5237723327,6.2463272645,-2.0382577359,2.5499699517,9.6066103501,13.757729493,13.513663208,9.5704911704,4.0238870401,-1.9339510142,7.1422083583,10.9452632534,3.5598854484,8.3028250403,2.5665992142
16.9339445351,8.6234066057,7.0969412445,0.7441847688,0.1649209345,8.1059839212,0.4845823388,5.300154869,10.6023590662,7.892362922,14.6873609664,9.2355181093,4.4932713457,-0.6603108223,5.2326781313,6.033358221,6.086219957,7.4832815143,2.6883062384
16.0385044548,8.3850019337,6.7351528048,1.5793593155,1.5079292214,8.097422234,1.6161568848,6.6503545378,11.1882872506,7.6897119022,13.3194654857,7.8674390221,3.7510159316,0.6934972193,5.5557669067,-0.2992856649,5.8150167663,6.6200906236,2.7298856844
17.6173374292,11.4585457842,9.0915149331,5.5157556949,4.9269214098,8.6764791347,4.1277730064,9.8527139243,14.4156595778,14.8205582961,13.8092788362,8.597737998,4.9814770183,3.8149698879,10.6627741462,-0.1047412816,6.1771806577,9.5617080575,5.3290627687
21.034101051,16.8970914863,13.1423999124,10.022036901,8.0735570164,10.6800073473,7.8643907132,13.3653783682,19.1781637182,24.5449378609,16.4470106085,11.9256558643,7.9738711814,7.0123008384,17.0758656741,7.4869917654,7.8875711977,14.811220986,8.7277654335
22.6224262821,20.07498507,14.9091684778,11.5098442458,8.6376198622,12.7476875342,9.5863799969,13.9790770129,21.7532900206,30.4829104109,18.0612195609,15.1582990427,9.9661593311,7.7856823195,19.1943228572,14.5477286315,9.3385255133,17.9255716471,10.1043646431
23.8515822514,21.7413800247,15.9799460432,12.554540253,9.3337999296,15.806121347,11.1636859886,13.1669408293,23.8325276131,32.5327117229,20.5322217516,18.0752079949,12.3380390906,9.1317776545,20.0130617847,19.1700699645,12.3354731549,20.2044137192,11.4181219252
24.6493223298,22.9451980492,17.9926283546,14.2070123448,10.7662818578,19.3933323704,14.4889093694,11.20028373,26.1658434397,30.374091561,24.2292049451,20.4771892205,15.3937084685,11.5226353028,21.824011409,21.6861483126,16.7166260208,22.3536459934,13.4773236583
22.3149038894,21.1659882435,18.0988079303,13.5615410435,10.5379199536,20.3077166206,15.8965732297,6.970523749,24.9180901159,24.1216770768,25.5020964204,20.3392166444,15.8965283353,11.5721899577,20.2016699116,18.4496872487,18.8405396188,21.6953803662,13.3586037686
19.3475230797,17.6240511073,16.0029654266,11.0768381815,8.9085263268,18.3178395198,11.4907798286,3.4335940007,21.1534293357,19.9306807426,24.3632497434,18.4497789081,14.20381214,10.1722554837,16.2575608729,12.7554385534,18.1879198294,19.3865926268,11.3686102959
18.5102891012,14.8890880454,13.1118142934,8.5022895206,6.4041934231,15.7475591742,3.3896364043,2.9980540204,18.2391465976,20.1052932738,22.9095069859,16.176738344,12.3554550533,8.6459878537,13.9583571338,10.3752428574,16.1241025035,17.2338670333,9.5452694695
17.195342758,12.0334272053,9.0947273084,5.3331394922,2.7247691394,12.4363243112,-3.1283786749,3.4652671114,14.9109116123,20.3245116291,20.1355309096,12.4961677981,9.3431094782,5.5598294733,10.8429510919,9.2942836893,12.5642821566,13.6067425922,6.6821695661
14.7301060061,9.5594014709,5.8017875931,2.7823831625,0.0515068375,8.9592779537,-5.7614137241,3.5802996355,11.6894556206,19.5770785866,16.0197089771,9.0328820288,5.996893141,2.3306727441,6.7296865226,8.2780286756,8.7969041723,9.7793200492,3.5961723543
13.9470923183,10.1167049945,5.6845040598,3.0160660942,0.0593351887,8.2376388957,-3.5092709646,4.8794573574,11.9760785134,18.8848231389,13.9357938975,8.8412277027,5.4108580702,1.7595722617,5.8115214569,8.0254133379,6.5440610237,9.5247889243,3.8741971216
14.3367351354,12.9643130958,7.23172671,4.6356885124,0.4844802833,9.7421185786,2.2245439009,6.4120776725,14.5668170301,16.7718980988,14.3248417669,10.3273209779,6.5387508012,2.5477057269,7.0509294887,6.2327487891,4.5994804404,11.8741452418,6.4718593172
14.5401477091,15.3786677363,8.2928397431,5.3412316027,-0.581175848,11.1883679194,5.8956454997,5.3558319943,16.3950639296,13.3387084946,15.2209132304,11.0297001039,6.7599688323,2.4774668007,7.2572580309,2.9959416233,1.723740424,13.7248008994,8.2080355361
15.6021839012,16.7226837273,8.9995261426,5.4573327692,-1.3784268391,12.9325734736,5.9342719637,2.4622528618,17.5961583398,12.3582882829,16.4409276158,11.4674556242,6.8292573489,2.6438852972,7.2237563727,1.0139178272,0.1191745594,14.7193562747,9.2977243427
16.0771908538,16.0904757892,9.2308928097,5.4258477727,-0.5599852109,14.5856457927,5.4073536686,-0.4398919849,17.0778744315,14.7339531719,16.5033940742,11.0699971023,6.9189400247,3.4845777357,7.5495185554,1.264561662,0.6299136735,14.2607988483,9.3390471067
13.3501441307,11.9421227778,8.2891687624,4.4665684754,-0.2895203734,13.4765738288,5.606664036,-3.5649762751,12.4272944457,15.2836219307,13.0776859965,8.2444109797,5.2786918259,2.6762599961,5.5340746808,1.6416284529,0.2344993666,10.7433060822,6.8872660862
9.2701265101,6.2906465171,7.2647226047,3.19425018,-1.0497933256,9.8223083927,5.7318335816,-5.5014896444,5.6960157239,12.4485125862,7.3238181149,4.5013386806,2.9492457523,0.5514707089,0.4409974829,-1.1899245548,-0.96606996,5.9671532512,4.1678489012
7.1924001795,2.9736371191,7.7750507241,3.4751461699,0.0802421105,6.5154816375,4.2270222305,-3.7227164364,1.1598486893,9.8851935074,2.3935169523,2.0725909656,2.3508597215,0.2558438891,-2.179654996,-6.1478866036,-0.1472314667,3.6493206891,3.9969356656
6.3444405185,1.632198271,8.3035667827,4.5613293195,2.1019847423,3.3975233147,1.051169139,-0.3224154481,-0.8634584361,6.1673678266,-1.6120180613,0.3084466745,2.2983652331,0.8175929658,-0.4716436519,-9.307438769,1.0399937644,2.9925395409,4.7355336582
4.4254668237,0.1371023549,6.7732793269,4.4043297518,1.9243162587,0.3477165466,-0.9726703152,0.5754296681,-2.0646270369,0.2616839297,-5.3327093196,-1.2179894021,1.1592152963,-0.1682744207,-0.7273485457,-9.7958348894,-0.1466224021,1.6149681547,4.2736689269
2.119421978,-0.1234067417,4.9770309496,3.860928589,1.1841071363,0.0870241985,0.0729644029,0.0305940345,-1.7492762806,-2.388939996,-5.4436690311,-1.2178129819,0.6071122268,-0.7051159652,-3.065332716,-8.0463655027,-0.914048204,1.0317165341,4.1252889762
0.8235755812,1.5734433967,4.5315482297,3.8127755963,1.3390125775,3.2411042889,2.316960716,-0.0878646916,0.0051506134,0.1859792657,-1.2772463861,0.0093512405,1.4178438849,-0.0290691821,-3.5949253844,-3.6070893037,1.3178022718,2.1368468895,4.8000109874
1.3304517559,3.5305965721,4.4393799146,3.7970448811,1.5544619911,7.7990804171,3.4985581753,-0.0599651661,1.6297596661,5.2231466327,2.679640203,2.0951882805,2.7341235458,0.6123957167,-3.9799547216,2.7365624951,4.4751042713,4.0294667828,5.3517395786
5.7116303014,6.1968789824,5.0971495353,5.2454767635,3.4127506015,11.5176824181,4.8576932256,2.533174448,4.4779306304,11.140684055,5.5641051987,5.8722243548,5.2817001016,2.6857298929,-2.2237929703,7.6438932869,8.3447284329,7.1846952583,7.2385997607
12.8875886315,9.2876008014,6.3721907363,7.8246199824,6.7843413193,12.5004232753,6.6675261409,7.2947668374,8.3030579384,16.4720629216,7.7805742336,8.7147908348,8.073782935,5.7399885262,3.398603591,6.9970549865,12.6288797653,9.893658594,9.6964701214
16.5713116798,9.7984975974,5.4609369129,7.8783303681,7.674305012,9.8780854267,6.2669263182,8.6573131909,8.7206219348,18.1202161088,6.2100363885,7.3420090705,7.609334362,6.3328751512,7.1003088716,2.6966748129,13.1898511874,8.7926696105,9.0244559581
14.5909080059,8.3443608209,3.1264033027,5.6032463195,5.2576388242,5.7038204756,5.1145490949,5.9931791459,6.3550469103,15.3916259822,2.3491620849,3.9047354515,4.4577565644,4.3721704903,7.7224440753,0.6524232075,9.2043954321,5.3423973726,5.9876899622
10.9146674926,7.7809367339,3.0052882476,4.3618430364,2.066466417,3.6175462552,4.8880824756,3.569361145,5.331699362,11.8997559913,0.8977754026,1.5638062596,1.9894957211,2.3968832181,7.078955404,-0.3566604196,4.1734826951,3.0720421594,3.8788885517
7.7005412211,6.8948385827,4.2454754616,4.2492886249,-0.3659776183,4.0362674507,2.4438331428,2.4203797364,4.534339086,8.6255837704,0.5974648755,0.2520000422,0.5508690716,0.9049091263,3.5355421833,-3.1347868967,0.553968773,1.6567114865,2.7956450591
5.5411746172,4.3110637972,4.9813322296,4.1093510596,-1.0043425236,5.2906031825,-0.3470971587,1.5216529475,2.6124509819,5.1161125443,-0.0875505004,0.0003765095,0.1311188309,-0.0540417315,-0.4997515555,-5.0894835275,-0.3495182229,0.9286050817,2.6069541313
5.5829971615,2.3559234348,6.2264057321,4.9579901094,1.0034276279,6.7571624395,0.4768193537,2.073060237,2.0250877941,3.7106388969,1.6953371395,2.2146433641,2.0900292586,1.1360058626,-2.1760346761,-5.5044400373,2.1354026209,2.669176564,4.3031508673
5.4872953913,1.8660165096,6.5760986998,6.3979406141,4.1073722793,6.8450603744,0.8279515521,3.9380326931,2.2091770821,2.7733019667,5.2466154059,5.4686448227,5.1992403878,3.7592169923,-5.0768824536,-4.9994075349,5.4722442829,4.7959991669,5.893126482
2.1324422899,0.845848387,3.501518655,5.4700046127,5.3278011583,3.6784793767,-1.465062325,4.3361800318,0.265051523,-0.7449833399,5.8214403012,5.7208020466,5.9682179439,5.0470029012,-10.7005658965,-1.8020359071,6.1937480751,3.6925148843,4.5188556642
-1.4813503598,-0.3763111406,-0.4846897135,2.6674659674,4.7241919536,0.0910960636,-2.5253647388,3.9250398398,-1.8577937927,-3.3381589215,2.9867740311,2.9965017056,4.2065190849,5.3573978706,-12.326214876,3.6373227781,5.0951630331,0.762241549,1.5834114198
-1.4633090217,-0.6598220973,-2.2048290845,0.659445242,3.9451352646,-0.2535528211,-1.7924244628,4.5841757638,-1.9973958323,-0.9702651992,-0.3641786073,0.4018361603,2.6938961974,6.0594301627,-5.1302576593,7.8685006819,4.7845244722,-1.3420489923,-0.2843810618
0.2621499527,-1.3627867355,-2.79700524,-1.0274145225,2.4656135603,0.7042013991,-1.2663825381,4.5097455964,-2.6139682415,4.0759593851,-2.9876409439,-1.3327152925,1.6829790614,5.8997729764,5.540005434,8.7990292917,5.2174419601,-3.2330121464,-1.331572515
2.590893387,-2.0207045152,-2.6600938304,-1.7556650241,1.2920647722,1.3471843777,-1.7138165439,3.6283735175,-2.9913496635,8.6890284785,-2.5738236952,-0.9024735681,1.6487616703,5.1421521887,13.7884491903,7.2095613472,6.148524762,-3.7162754878,-1.2433272578
7.5947803909,-0.4060418589,-0.3665723457,0.493081045,3.0804034853,3.2061045612,-1.4989853813,4.1884763022,0.0659516778,12.9997993386,2.8186137952,3.3292255887,4.5292446557,6.2447041002,19.7851295677,4.8015617586,9.1278420599,-0.3086457788,1.4847075949
11.965707021,1.4251900201,1.4881160964,2.6300745419,5.1906713746,4.6971699753,0.0031793531,4.5241283019,2.7174940257,13.1247799349,8.1399773859,7.10168426,6.6897612334,7.0547439189,21.2248815349,0.5159491702,11.3401588069,2.63695571,3.4150715677
11.4394800311,0.2630117762,-0.2209509184,1.1378257651,3.5207131828,3.3826545509,-0.8669474788,2.5480268386,0.7390815409,6.3880607435,7.6264929613,5.9569697845,4.0538571913,4.3891504707,15.2739642049,-5.2244755364,8.6858488583,0.6388276689,0.601987866
9.3184863511,-2.0446679026,-2.9788196523,-1.2747415476,0.155992276,1.34703271,-3.2354483934,1.4197936346,-2.0491459598,1.2908536653,3.7833066327,2.6227595512,0.2515571099,1.5461685268,6.6910754882,-6.5157733392,5.2798998638,-2.1143638995,-3.2051024902
7.2708530458,-3.7377106777,-4.9896101829,-2.5889203389,-3.0564619335,-0.1258735993,-3.1575217932,3.307141392,-3.7502685528,1.9353150316,0.0533458965,-0.2351838217,-2.097849294,0.217890865,-1.1155773184,-3.2266375081,3.8378265089,-3.1045872321,-5.3176203377
3.580022066,-6.0570530488,-7.5804954821,-4.348500266,-6.9303203965,-2.8370835602,-3.6295271613,4.3378634199,-6.6175585204,2.5677911696,-3.6226231503,-3.2787879942,-4.6224632771,-2.0564509414,-7.7364631737,-0.5741182987,1.4384137608,-5.3298329567,-7.6794915393
1.7774086655,-7.0582906152,-9.2741874547,-5.6737956562,-8.2472282157,-5.2571216236,-6.5069412061,1.821458067,-8.0434993835,3.4488436262,-5.5538806368,-5.1431841533,-5.7980273887,-3.3485688532,-7.2956033784,1.6007770491,-0.6671316731,-7.5418908176,-8.1997508313
3.8482329463,-4.9068469662,-8.9660407209,-5.945925283,-5.1896946579,-5.0430375147,-8.218166196,-2.1623713017,-6.2418894334,6.5462096014,-5.3698221248,-5.0972802766,-4.8503665427,-2.2321483103,1.3044347828,2.3770690282,-1.5110788676,-7.2370061504,-5.8017353548
5.7481609774,-3.4116121457,-9.5475761253,-7.8287547829,-2.450362863,-4.3157663105,-9.3487991816,-6.3696682555,-5.3228285766,7.1389084974,-5.7162911085,-5.9197669283,-5.1786969147,-1.9508149397,8.2013480607,-1.2855836485,-3.1507402654,-7.5212226578,-5.3053975429
5.710444967,-4.5823834299,-11.998388851,-11.0037678324,-2.5032679255,-4.4211867691,-11.4330759649,-9.3744530533,-6.4898157579,3.8154455385,-6.5035733918,-8.0334528087,-6.9708067705,-2.8294262507,6.2699651351,-6.089280663,-4.5227332383,-9.6979177019,-8.0635645172
5.5538823537,-5.6265567353,-12.9499285096,-11.0275028406,-2.4889896527,-3.560587403,-11.017579223,-6.9622669842,-6.4957649828,0.875247722,-5.5418539898,-8.3782026498,-6.8162785206,-2.3830646846,-1.233105283,-7.3235887911,-3.6471672244,-9.9256326866,-9.7456708285
5.1123010086,-6.0019316964,-11.4824364528,-7.7378243612,-1.3583342913,-2.2862718291,-7.6429935821,-0.2013981892,-5.4398757069,-0.6657855334,-3.6560040373,-7.0308681223,-4.9484534956,-0.6814984547,-6.9598657815,-6.2781518282,-1.4520456948,-8.2388402482,-8.8858026896
2.8897887875,-7.1737217113,-10.1714927381,-5.4543331769,-0.7425136075,-2.8560178682,-4.5651669448,4.1368541024,-5.7375434094,-1.840150199,-3.1924265176,-6.5203573456,-4.1253883669,0.2985333788,-8.6924595415,-6.1575510754,-0.4423537266,-7.8741912701,-7.665683163
1.4690768953,-7.6781379067,-8.5747065861,-4.6055090565,-0.2642405054,-4.1488759995,-2.2414174385,4.7314664454,-6.0284624478,0.1868848095,-3.2853622247,-6.511926125,-3.7396338461,0.3239225829,-8.0201116546,-5.6676660833,-0.2248548801,-7.6791200931,-5.7602410335
2.6619511037,-6.6418943934,-6.4897179052,-4.1378635833,-0.0925614852,-4.6594033752,-2.3940181576,3.5098367207,-5.5899458146,5.1418097825,-3.2825645471,-6.9001757131,-3.4577165296,0.1466319393,-6.2272902549,-4.4449799031,-0.3038580987,-7.0655020817,-3.4519891195
2.3575259056,-6.8810970965,-7.4121869103,-5.9382997628,-2.8644600105,-5.9733168096,-7.4711743338,-0.6477109409,-7.4740667861,5.6376744641,-5.6178412041,-9.6094877585,-5.8694081008,-1.6555281355,-6.7555068078,-7.5910576862,-4.1427616943,-9.0868928728,-4.1619320396
-0.3166659579,-8.5320907084,-10.5908721502,-9.061083188,-7.1082647832,-8.0951364722,-12.9063939671,-5.5357336447,-10.668208658,0.774113244,-8.9960215551,-12.8606534289,-9.179957814,-4.2793502249,-10.3224020239,-14.7280854274,-10.2156328514,-12.3142432193,-6.7955663196
-2.350191438,-9.1072433829,-11.8303556546,-9.96523634,-8.4961931238,-9.2342917896,-14.1373500667,-7.0614252059,-11.3944595503,-3.2539150835,-9.5632614615,-13.1066557735,-9.4990032568,-4.5886493348,-12.9678536719,-18.621482323,-13.1948639076,-12.865787364,-7.6229890772
-3.8872440185,-9.4133075525,-11.4823860742,-8.719942993,-7.4906929073,-10.9490595041,-13.4711749637,-6.1355875497,-11.0419955754,-6.4652195613,-9.4136070771,-11.5977231473,-8.4574946451,-3.5033412411,-12.8157847286,-17.6373423609,-13.481698499,-11.8376887969,-7.3443829992
-4.0421870166,-9.3742457984,-10.5933660275,-6.8119346305,-5.9808935598,-13.6954042462,-12.0572819231,-4.0370151901,-10.9353310921,-8.8607845496,-10.9302181153,-10.3790964444,-7.6084654385,-2.4334240779,-9.6135102677,-14.3724518954,-12.5704121684,-10.448862377,-6.5686516328
-0.6927031385,-6.6935665512,-7.5027694078,-3.8657775824,-3.0172899351,-13.0327443989,-8.7384494713,-0.4768624507,-8.563282813,-5.3307437998,-10.3496997376,-8.0429525574,-5.2300052674,-0.7177328707,-3.0560933507,-9.3832278999,-9.6673268844,-7.2181820647,-3.4736544809
3.3230869396,-2.9740370879,-3.7336178353,-0.9224720353,0.3991845507,-8.0900350151,-5.1592625224,2.0409247871,-5.0852344111,1.7632602927,-6.8460818009,-4.7739943526,-2.236921655,0.8754024682,3.8181075637,-5.7687544717,-6.0662703555,-3.4628798715,0.437413095
3.6394276166,-1.1308993706,-2.2476742259,-0.4181766015,1.2130844681,-2.3897134726,-2.9362471133,1.2475129978,-3.9336140055,5.110919429,-4.3334694174,-3.1224740041,-1.208283907,1.0277921374,4.0935225461,-8.3830669605,-4.8699767403,-1.9948170153,1.4177630952
1.0105327946,-0.4548470388,-1.0723316166,-0.6650650195,0.425755503,3.1334823977,-0.8316343791,0.6307056839,-3.6717515253,4.8529356728,-2.4391504303,-2.6502863509,-1.2677539903,0.6895998496,-3.8028737676,-14.8320636471,-5.2551140461,-1.6173823273,0.9780270223
-2.603952464,-0.8097641711,0.3772986134,0.1803398914,-0.1288783046,6.4908063147,0.7703293141,1.7189034312,-3.3254276162,2.6106812026,-0.9507081442,-2.8042211343,-1.619598984,0.6657867125,-11.8769409933,-18.04261577,-5.4294643309,-1.1994585997,1.331331434
-7.4669901021,-3.7862137703,-1.4321267265,-0.9947160165,-2.1583448428,4.5160226944,-0.8975700743,-0.7727462988,-5.3850552969,-3.4520367582,-3.4557316835,-5.4243879764,-4.3870605535,-1.405160119,-14.8124326407,-16.5060741339,-7.5983711001,-3.0932149272,-0.8410777695
-10.5460257364,-6.7852396704,-4.5848569653,-3.4775439268,-4.2335289197,0.6238857691,-4.0463146533,-5.9390348048,-7.7978233367,-10.727508222,-7.1972691263,-8.3349194477,-7.7670609039,-4.3720097141,-13.5573813538,-12.2457812943,-10.0927265073,-5.3661801992,-4.4704463094
-8.7807061364,-6.1707140548,-5.5798207593,-3.3981733819,-2.5875388972,-1.2647712245,-5.3077150248,-7.7470666652,-6.5303617674,-12.5359071043,-7.6138458927,-7.9636214492,-7.5871540978,-3.6242515704,-8.7449734984,-6.3237169188,-9.0478159674,-4.1835414484,-4.6855493548
-6.177699704,-4.0793608679,-6.3002258088,-2.9787900377,-0.2034236188,-2.8457003243,-5.4270422545,-8.2907432695,-4.5322647111,-7.9393051797,-7.4854370231,-6.6345039354,-5.9589153066,-1.4795530764,-6.6594992461,-3.5372975982,-7.2751379953,-3.2021365243,-4.0147329608
-5.8234459997,-3.7507374251,-6.7795258377,-3.9632782817,-1.2434334811,-4.0428617163,-5.2588549854,-8.4915879763,-5.3269821656,-2.9539986077,-8.2421223476,-7.1577800463,-6.1741191679,-1.7940774949,-11.4558885898,-6.6817417455,-7.3597848749,-5.043921248,-4.4358360946
-4.676831973,-3.8000728031,-5.1091526307,-3.3478499498,-2.2283161091,-3.1816124002,-4.7259189601,-3.8457491424,-5.7924453087,-0.4654667855,-8.0666073035,-7.5205790919,-6.0493254221,-1.8163563014,-12.1134508538,-9.0468686339,-6.7878416518,-5.5876965878,-2.3736551312
-2.7589100333,-2.697882056,-1.8468120784,-0.5330250746,-0.7576624218,-0.1229462332,-3.2822739763,0.208117191,-4.3857590216,0.0807836194,-6.5659545975,-6.2547536537,-4.4250877383,-0.2841654496,-6.0940176234,-7.7983907073,-5.2919044715,-3.8744062921,0.7041884991
-2.5422084134,-2.3266652278,0.9539266169,2.1711996968,0.3955465501,3.2572374568,-0.8655698279,-1.5823038519,-3.6555347579,-1.6590606126,-4.6795345836,-5.3779005358,-3.6631038377,0.5999096517,-1.9692530241,-7.4997478958,-5.169027364,-2.6404266041,1.443546154
-3.8408764618,-4.3832603919,0.0051386355,2.1428271169,-0.3517401872,2.0770129037,0.182530316,-3.8452427592,-5.0530726681,-5.0891802588,-5.5515378151,-6.7750581986,-5.077976155,-0.5061144502,-1.4613310749,-9.6031229577,-7.2001913202,-3.6662942268,0.129898591
-6.7181877295,-7.2754603127,-3.9024952365,-0.7560524189,-2.8962337651,-3.1510628688,-0.1413348267,-5.058412665,-8.1297981836,-10.5094814572,-8.8299832497,-9.3771586111,-7.9063001589,-3.7012544527,-6.2105454614,-12.4117202987,-10.7802231193,-6.6262622419,-2.9144128508
-8.89949938,-6.8936842501,-4.7097176612,-1.3736414539,-3.4284888327,-5.7151426548,0.7837555952,-5.4975319484,-8.57783842,-15.2370899282,-9.2515339441,-9.0610683114,-8.1089367906,-4.5962042217,-11.3922585035,-11.7605602477,-11.8067224237,-6.6626696826,-3.9532957818
-8.9266479011,-3.1408173805,-0.9959733401,2.5722076774,0.436693863,-4.0111279328,2.324269648,-3.6901200713,-5.0529894135,-14.9366423424,-6.143126976,-4.9298606405,-3.7001865736,-0.8614221122,-11.5871314876,-7.0263972991,-7.5726649991,-2.1210700563,-0.6926421226
-10.106246061,-0.8593651571,1.80308127,5.991087342,4.2208436819,-3.1469883288,2.4599802312,-0.4671827205,-3.5256509349,-12.4355324433,-4.8321951142,-2.0940757441,0.424801705,2.6413400472,-12.8492410885,-4.1100907487,-2.2517716951,0.968020346,1.9382251221
-12.0459950797,-0.8755344528,1.3264280287,6.2813955224,5.4553814661,-4.9483750657,1.1934774159,4.104462056,-4.792420097,-10.334438778,-6.0229375443,-1.9325632891,1.6796386414,3.9514078589,-15.0057763646,-4.5348065226,0.6854018243,0.1162434155,2.0111685845
-10.4435308224,0.2435141552,1.5251373823,6.6455271707,6.3035771693,-4.2549694495,0.8725972512,7.8202810194,-2.9556893364,-5.9369490476,-3.335532502,-0.0678439917,3.2532238333,5.4253040335,-10.9297342052,-4.1981749482,2.7643529695,-0.2190110305,2.8650202944
-6.0177088235,2.0086011407,3.1435354803,7.6478090703,7.4997911065,-0.394180186,2.9200717403,6.2396896311,1.4800893138,-1.3073479316,2.5550165808,3.4593752198,5.2280164973,6.7251752222,-1.7223447835,-1.6340788841,4.1677056257,1.4987483787,4.0396999596
-3.6544949137,0.7122604437,2.3572437214,6.1191997924,6.9402306415,0.7364383222,3.2880759549,-0.5055040441,2.0428822358,-1.093660871,3.5534955602,4.2908941169,4.1896623164,5.619765053,5.2442015664,0.4799025928,2.389612012,1.2281162014,2.15319674
-2.7558172928,-1.5407324937,0.7128618203,4.1357609623,5.5440390334,-0.6244752603,1.2071347835,-5.2774886889,-0.3487715684,-1.1683243741,0.5547883859,3.2210581756,2.1468564766,3.8473181897,7.8654550851,1.6204499029,-0.3638261214,-0.2890999673,0.3688556065
-0.5183800995,-0.2833708343,1.5462281884,5.4528582179,6.4413772134,-0.306621996,1.1077455705,-3.5576755168,-0.2778392975,2.116633936,-0.4986102026,3.3816980782,2.5568868048,4.5190198961,7.561229392,2.9530075234,-0.5381614817,1.1682277765,2.6001625479
-0.2027707618,1.7472015047,1.9876895307,6.6213374887,7.1411508277,0.3555522636,2.1772636615,-1.111521264,0.5623450863,3.1821990217,-0.6241194075,2.5792958163,2.2324971825,5.2916291493,3.7684795289,1.7353473183,-0.607028418,2.7877519133,3.978555523
-2.1851141196,1.7903080651,0.7477396951,5.3829816752,6.0373241068,0.2131649633,2.7923401635,-0.9525119124,0.2252301788,-0.4453245577,-1.4784348496,-0.4941575501,-0.2901132988,4.2460742379,-0.3030555184,-2.0379920631,-1.8224959381,2.0303398207,2.2977011305
-2.6295512871,1.8957134157,0.2726292009,4.5927325502,5.6945833765,0.8339452295,3.0268310847,0.3180875998,1.0751001464,-4.7607869972,-1.6583334305,-2.9180856237,-1.7650348593,3.6827582028,-0.6645287473,-4.057273533,-2.1808109132,1.4047403543,1.3457798327
-3.4549300968,1.7054577634,-0.3467398807,3.5769817335,4.2008644915,0.4064309404,1.3660378178,0.3053879882,1.5451321435,-7.726711226,-2.0106123606,-4.4179411486,-2.4795060996,3.1983707801,1.0662042559,-4.2844844867,-2.5870237116,0.3137142975,0.2383916281
-6.06592666,0.2233809348,-1.9401110411,1.0082052293,0.7982861761,-1.8647746929,-0.6958527642,-2.8829468303,-0.2702939102,-8.4723624863,-3.2816343648,-5.8751579988,-3.5328304844,1.746656941,1.7422164393,-3.6772646094,-3.1959070041,-2.3106973056,-1.9225452802
-6.8009347729,-0.2709255604,-2.2158920389,-0.3501714248,-0.4455644509,-2.4168657748,-0.1995980964,-4.2939742047,-0.9732873648,-6.1749587023,-3.1993761719,-6.0427874147,-3.317009781,1.7463084202,0.8397679538,-2.0989341291,-2.3784388578,-3.6970997518,-2.1992012931
-5.793154614,0.5111760132,-1.039131288,-0.2501888421,0.0104301957,-1.1805342615,1.886702685,-3.234424721,0.0230911413,-5.1076490873,-2.0924681838,-5.6618078981,-2.6707333575,2.8899640009,-0.2327383185,-3.8662039334,-1.8145296781,-3.3580273787,-1.284897539
-6.0239480525,0.4755522889,-0.2198956029,-0.6790131952,-0.0163596537,-1.3760947804,2.4723748704,-2.4528848909,-0.4380722635,-9.2787464315,-2.6663505553,-6.4006898691,-3.3400166564,2.4065734342,-2.0055614365,-11.1067089646,-2.7445359622,-3.5331554111,-0.9838232934
-6.095299392,0.8350222991,0.9583593856,0.1314913703,1.3055515151,-2.4098495273,2.0733969133,-0.0707195171,-0.776683454,-13.1150254846,-2.6921849436,-6.178264819,-3.216876265,1.7003186722,-5.4019795693,-15.5817202082,-2.7287245289,-2.7345930202,0.7278898998
-4.3943537349,2.4662545329,2.8183649404,2.7897194561,3.83841418,-2.4699926212,2.5459425739,3.5758092984,1.0137511396,-9.370100646,-0.3881869004,-3.2748822419,-1.0863513726,2.1878393063,-6.3140967489,-11.0401345625,-0.9299904313,0.1025561428,3.6221803549
-3.7409297888,1.8734361901,2.6339396462,3.4628530344,3.8018771614,-2.3787126568,1.6419433104,3.5620129609,1.3287350463,-1.2826909255,0.0880942771,-1.074203862,0.0118080531,1.3421460939,-2.4539817989,-4.3851767711,0.2616832104,0.8333162483,3.7088845803
-4.3552012051,-0.9117890292,0.6706706617,2.0546746717,1.4387857003,-1.7426813017,-0.6625510787,0.7849858248,-0.379718837,4.2698981397,-1.9579779512,-1.0844410546,-0.39373549880000003,-0.494899243,1.938266078,0.1478564074,0.1632769607,-0.4950466418,1.7921741439
-2.6118968296,-1.058325223,0.72791447,2.8267214688,1.599732614,1.0912404654,-0.4877122886,0.8775291916,0.4232087967,8.6450114827,-1.6967791222,0.8140382744,1.3129128892,0.3330500487,7.0756784879,6.7044908426,0.6945361796,1.243023518,2.8031027565
-0.3645301333,1.2359890841,1.9220945176,4.441288996,3.4157092525,3.4215805935,1.7968797494,3.245624308,2.5729350859,12.8338876538,0.9178062191,4.2969614808,3.922832543,2.3701737044,13.3125604588,10.8413095924,0.8550933198,4.2220894014,5.0002730351
-1.6514683812,1.8293634906,0.7753467964,2.6134517589,1.9520262541,1.6240149489,2.5524080937,3.1005848948,1.5822963621,10.2020417226,0.9544270464,4.6321889538,3.0551861441,1.4642735726,13.6822080749,6.6332237225,-0.8515494448,3.3794519669,3.6438191831
-4.6891113174,1.3263981603,-0.9057113086,-0.4143277839,-0.5271641837,-1.7294371211,0.6599469044,0.7889412405,-0.4884145532,-0.9224279342,-0.8826814998,2.8410456185,0.3272151421,-0.7982024693,7.521627354,0.4090226087,-1.5949786643,1.1521455341,1.302314102
-7.6941169465,0.8680612186,-1.7509470816,-2.2374827076,-1.2606033235,-3.7384559876,-2.3135379711,-1.5462586992,-1.4019602955,-13.2534994255,-2.0507882989,0.5998463859,-2.0560466687,-2.3408413657,-0.7193007209,-2.4764925426,-1.9748175084,-0.1622548823,-0.0450187547
-10.3197142988,-2.1715105776,-4.2765254681,-4.9517479758,-3.0845481521,-5.1950189671,-4.4337930717,-4.6187505511,-3.6902573637,-18.8165673606,-5.1823285761,-3.4011658018,-5.5136835167,-4.7744989596,-7.9105930802,-3.9209511054,-5.1196290159,-3.4526764251,-3.2651350679
-9.4813592549,-5.8846196646,-6.7626327823,-7.2448456631,-4.5852299961,-4.4818166768,-3.5167419743,-6.6872790438,-5.9860369077,-14.0969785773,-8.7077579691,-6.5397949343,-7.7304424819,-5.8536959845,-8.1198304527,-4.0211827763,-7.2356871705,-6.9706779963,-6.2813948122
-5.675322275,-6.39895778,-6.4365957497,-6.6515605257,-2.5419090976,-1.1391144431,0.9269873775,-6.0308855448,-5.5215161535,-3.8990570846,-9.1559731568,-6.639832514,-5.8106771423,-2.4827928487,-2.1526256067,-2.665077919,-5.0398717488,-7.1847346594,-5.9276553228
-4.8835838145,-6.3151359683,-6.1769055093,-5.8504008223,-0.1379031202,-0.0825841022,3.8643214813,-5.6230696385,-5.9775795466,1.3843485816,-9.8521904303,-6.4192028258,-3.4166057406,1.3993940335,0.7519068392,-3.1757659618,-2.5273588475,-7.1468085969,-5.5546057629
-8.7091007742,-7.5079941216,-7.5338995813,-6.7719107461,-0.3762240346,-2.9295842751,1.4965803378,-5.9448929154,-9.5376697582,-2.871900468,-11.6693064477,-7.209889152,-3.8009965149,1.7487064629,-2.3920989843,-6.1451368975,-2.4375008786,-9.0222915148,-7.1643695229
-12.1873268131,-7.3192382299,-7.4531279223,-6.825340393,-0.7869014715,-5.8033318483,-1.6654922469,-3.2625954473,-11.2518620257,-10.7359697158,-10.5886373143,-7.1113771436,-4.2699769339,1.0297071721,-5.9639862823,-7.0999811031,-2.5950945048,-9.3969837058,-7.3034734416
-12.5758814281,-5.4116694423,-5.3250972559,-4.7432998349,0.686776271,-6.5444699011,-1.5719753324,1.5332809857,-9.0008917352,-15.1440175528,-7.4975858626,-6.034300423,-3.5615614407,1.2150216682,-7.0170720352,-4.6192525158,-1.9391868519,-7.1812923365,-5.2002292245
-11.2768535763,-4.0002691026,-3.6218677046,-2.9840036508,1.2295255274,-5.6757954251,0.4320426183,2.4102488242,-6.9155624022,-13.8880592676,-5.937771092,-6.2680175026,-4.0615348287,0.0733279455,-7.8150813717,-3.2223677652,-1.9076680228,-5.4858477546,-3.9573467276
-8.9162327477,-3.2938880894,-2.7339086282,-2.9592297311,-1.0316899599,-3.4176685437,3.130981436,-0.7942444023,-6.1329671423,-7.4696234388,-5.7618332998,-7.6146114005,-5.7095374619,-2.4588443706,-6.5122003511,-5.3243699633,-2.8239419389,-5.1817913828,-3.6722817055
-7.1186401622,-2.4267308911,-2.1295995066,-3.6624971238,-3.557436766,-0.4403731756,3.8562817079,-2.7190580216,-5.1510976591,-2.2699101647,-5.8868979338,-8.4553050282,-7.2240966776,-4.6389004111,-1.0153851684,-9.0284114638,-4.7840074021,-5.2489062657,-3.1528589705
-7.8097949322,-1.4673832546,-1.6488496241,-3.908550167,-4.8086476792,1.613803636,0.4075358328,-3.24483182,-4.0433284918,-4.5573055865,-4.8637534866,-7.6385256623,-7.7802438526,-6.0253530901,4.1866691871,-10.4304941808,-7.2795322803,-5.0958063086,-2.6564178146
-8.3009957261,0.0840122656,0.0675255977,-2.2527329762,-4.1120295461,2.4180077454,-2.242056945,-2.977068975,-1.3467435893,-8.4310062267,-0.8182308068,-3.7262583366,-5.5320428512,-5.1705595581,7.3373579254,-5.6211275289,-6.5459213292,-2.9703210147,-1.0141594642
-6.9200618135,1.2802472211,2.1707927359,0.571372218,-1.1852856243,1.7431319635,-0.8776760208,0.4295298937,1.7630053015,-6.9593273637,2.8857031196,0.3606035867,-1.8887811045,-2.6907950772,8.9495030866,1.3023039819,-2.2743859083,0.0472632766,1.2759378241
-6.3535285538,-0.4140635439,1.5889332109,0.8946957484,0.7108762589,-1.3849094415,0.5743637233,4.3795678767,0.6022584935999999,-3.7493024365,0.8851661967,0.1536622063,-1.1429885737,-1.9786848863,5.4586483666,2.9621342943,-0.4534535419,-0.1324195696,1.0485881532
-6.521405219,-2.8013617809,-0.3500462093,-0.7338316104,0.5762496715,-3.3586442174,1.8468724516,6.0611631838,-2.4442067961,-1.1177985699,-3.1635007536,-1.7073818782,-2.4261735262,-2.5096446664,-0.6880183373,1.5526591168,-2.0687836425,-1.7790363426,-0.5489677734
-5.0778093802,-1.5618812309,0.2890888005,-0.2044427441,1.31646138,0.2508886705,5.3693252759,6.7356825488,-0.9906525658,2.3617672823,-2.4189365204,-0.6141547682,-1.2838815115,-1.834490349,-1.9493989271,1.8539820648,-1.8989977511,0.4780231724,0.0912081298
-3.6132532541,1.1266030152,2.1982240012,1.1151845596,2.0714666837,4.3805901746,7.1943026886,4.7244529139,2.7713939414,1.6042221625,0.6799535242,2.0844145774,0.9340285457,-1.5143382133,-0.7010507973,2.3480005861,0.0018972944,4.6856726931,1.121027756
-3.85236274,1.1398895511,2.1165792065,0.506031838,0.4829564753,3.1911124265,3.7606146778,-0.5002886194,3.0489200159,-5.5012007785,2.0578841076,2.7966888285,0.4522247936,-3.2087730474,-1.6964044442,1.2656249133,0.3249725352,4.8309510576,0.0140455129
-3.0573594602,0.8427034959,2.0220984734,0.674583108,-1.274105192,1.1568920843,-0.3008394327,-3.7982360917,1.9804899041,-9.5475337446,3.1490586111,1.8779244668,-0.2951243749,-4.2376920658,-0.4974866961,0.9884042198,0.5354428019,2.5293984376,-0.0598670373
-1.3764268421,2.1968171791,3.358215495,2.4565241807,-1.1330398724,1.9695089146,-1.0958766784,-4.7683135551,2.2362505749,-6.6401961002,3.3215158211,1.3475423852,0.804242312,-2.8873298877,4.4241865509,2.0953388284,1.2053113273,1.7895598006,1.5801257695
-3.2367784523,1.4248687472,2.6848071596,2.1882051639,-1.0645000677,1.9532972748,-1.1548507659,-8.0340399606,0.2106004772,-3.5837807401,-0.1255293395,0.3434415007,0.8010478427,-1.8251483967,6.243505059,1.5541022161,-0.5934632811,-0.1623911324,0.47008679
-6.99723075,-1.1235500947,0.6406427721,0.1623891524,-1.3294013975,0.5700660431,-1.5503300918,-10.8172201563,-2.8463975922,-1.2529626912,-3.8542535566,-0.2606704553,0.4449262325,-1.4234773581,2.339892862,1.5631590809,-3.1067763826,-2.974795069,-1.725358282
-8.1664153191,-1.1963394676,1.3240864871,-0.0062697009,-0.1058356855,0.643288808,-1.2330582026,-7.9895926137,-2.0074001246,0.6850815264,-2.4264337279,2.2245466188,2.7111745584,0.4197935465,-4.7415386077,5.4034125709,-2.3087452316,-1.7986288323,-0.1929985137
-8.5050601351,0.0465301491,2.8469976249,1.0642188934,1.0854238224,0.5820793304,-1.3517302501,-3.8068323667,0.4867702048,-4.9683125684,1.5986045389,5.1587319361,5.0217374993,1.9742256817,-11.8818872674,7.8689190487,-0.1577124747,1.0834037616,2.0403386295
-8.9252267777,0.7550078685,2.963304565,1.617056224,1.1181444253,-0.3922831726,-1.6572098829,-3.2526060092,2.1930744211,-13.7162711952,4.0814420949,5.7224095283,5.16016125,2.3327326893,-10.9793745619,6.1719419774,0.6081829568,2.3966170814,2.1234521714
-6.5435703474,2.216879473,3.4728047368,2.4868642998,1.5333917675,0.5216121176,-0.7332128829,-3.1588400555,4.5966118912,-12.8484884326,5.5905529831,5.0060822503,4.9120248918,3.5535220198,-0.6730362989,4.6863926293,1.5010976884,3.7092774958,2.8401074478
-3.2665318797,3.3678829987,3.4798868568,2.7925332029,1.9551413676,2.0375616668,0.57772751,-1.9856367426,5.737576979,-4.8841560383,4.3287857405,2.7347794205,4.2838066352,4.1615992715,6.2281965631,3.9134809859,2.5070240486,4.1714058668,3.8097797635
-2.6894781552,2.5560070288,1.8363674042,1.2393442316,0.9524573046,1.2322888118,1.4749409135,-3.3162955624,3.8508066847,2.5140521567,0.4742759508,-0.3728243404,1.9163587837,1.9062393932,4.7153674554,2.7081616331,1.5778115545,2.326252117,2.3167571057
-2.5201087583,2.0615396782,1.4000434193,0.1356477669,0.2052253915,0.2836863431,3.0029787368,-4.9801344444,2.9413097861,7.699664932,-0.3323087834,-0.7707026451,-0.143457471,-0.549491312,2.8555209202,3.872126911,0.0423617386,1.307338526,0.3596399607
-0.9455534625,2.5723119265,2.4836226475,0.5538059192,0.8380655795,0.9254991127,4.6789052108,-3.0481178326,4.0692334819,9.2002698939,1.0336908079,0.7786762986,-0.0877143683,-1.004790061,4.9906154413,6.1796014229,-0.4071391417,2.2410189651,0.1822869049
-1.266755165,0.2632866874,1.2425436852,-0.5774998398,-0.6715634816,0.1256722042,3.3425457495,-1.5152828967,2.4168027832,7.432824916,-0.4458127677,0.1296925325,-0.6985495872,-2.4769991973,7.5749848059,5.2757945485,-1.4738744444,1.3211375677,-0.4699728705
-2.7902227177,-3.0286302318,-0.7272397043,-2.0101662379,-2.7908532449,-1.4363682424,1.3789050817,-2.231794701,-0.1613370766,6.1495281001,-1.8141824842,-0.4146316744,-0.8428377904,-4.1256869026,7.8665394715,5.3714488592,-1.5321974412,0.2826155604,-0.3013045639
-1.4328887979,-1.3183361384,1.5620344041,0.9128765228,0.2936727028,0.5970001632,3.541333231,-2.0555657464,2.2141540595,7.4620562992,0.9972616714,3.4048797063,3.6906116997,-0.7947783917,7.0178539345,11.0868822696,3.3871973685,3.9795349887,3.9777940473
-0.1480023867,2.4468892711,4.8868471645,4.6603887379,4.3210309625,3.236818026,4.4224925644,-2.4976007095,5.6901964566,6.6006395562,4.136691067,7.7539261078,8.4975207507,4.1002747861,4.3788644992,14.9272756347,9.1644627005,7.6844943227,7.2874420865
-2.2387431121,2.7092298809,4.125948272,4.0500042894,3.297270552,2.0775807273,0.2516614535,-4.5469122415,4.7984108687,-0.0878403803,3.8225303983,8.3038993931,8.7083346158,5.0023718601,0.8468759288,11.146500259,10.3999741867,5.9418315213,5.7570752675
-3.7070318415,1.3202620656,1.6682441386,2.0100616857,0.7724141169,-0.0325697627,-1.9764412908,-4.5291682138,2.308567113,-5.9022574059,1.9963805649,6.9000486663,7.3126790319,4.2415231128,0.8982870501,6.4071855178,9.9811597213,3.0438614155,3.7995663506
-3.2027862707,0.9448503414,0.6858545418,1.4193447995,0.0367853863,-1.0317815491,-0.0043611602,-2.1889727127,0.892539563,-6.9101657595,0.2739197355,5.7484853195,6.3191682938,3.938638181,4.4618104243,5.7963355169,9.6958397679,2.3167418262,3.1977118693
-4.2344899292,0.6428513718,0.2877858545,0.9111439269,-0.4891936092,-1.8248087777,2.0433848087,-0.9893528655,-0.2144866457,-6.8087946701,-1.2747800492,4.8465784731,4.8444669542,2.9944664623,8.4285233087,6.1405447856,7.6138341575,1.3629836467,2.3829324698
-6.2880470153,-0.0150527556,-0.2289798906,-0.1667616767,-1.0539510056,-1.5353220661,3.6089361427,-1.1345462067,-0.3821056773,-6.5823063514,-1.5439413777,4.134452195,3.7308335765,1.4593619835,9.9006617462,5.8392739266,5.2530241491,0.341334875,2.3119321239
-7.0764212256,-0.3795796239,-0.3705356842,-1.4768275078,-1.1019213621,-0.1739825456,5.1202439993,-0.6245884171,0.3965442857,-6.9661466779,-0.6221737549,3.7726045714,3.5569035508,-0.1905375431,5.3780275386,6.405879789,3.6267948874,0.5264915033,3.011252577
-7.0395621089,-0.6125063059,-0.8260367688,-3.2020361254,-2.2889876061,0.2252922482,5.2742095223,-1.0618782944,0.1786316126,-7.966160153,0.1261809246,3.1427003112,2.9670867289,-2.2312087398,-3.1836214333,7.7852387079,1.2809014766,-0.0596053665,2.03430362
-5.6603297124,0.0416051342,-1.0983734915,-4.3550855395,-3.8424206729,-0.1787815876,3.9778101731,-3.1877261515,-0.2601776699,-4.5673239782,-0.0951670023,2.5660729508,2.2231071361,-3.4386999505,-7.15212283,9.9375330956,0.0941926467,-1.2877714068,0.049225503
-2.5209634471,1.8261587031,-0.0701578896,-3.7779380192,-3.4596770478,-0.0362270286,2.8120915327,-3.2390819901,0.7130759814,3.3896125326,-0.9940755208,2.8090921208,2.4160932882,-2.4330939413,-2.2001738932,11.9744832561,1.97542433,-1.009672561,-0.3647034525
-0.6394078006,2.0296003941,0.0990561078,-3.2877500149,-3.1744752603,-0.8844966297,1.9887684988,-1.1926260741,1.1220374383,8.4648152957,-1.7498184842,2.2261381174,1.6452308604,-1.6798519848,4.8115040033,10.7218750382,3.3580850938,-0.6696530573,-0.7296321036
-0.8151827877,0.4247960761,-0.7078321581,-3.3364144171,-3.555918609,-2.7260951697,-0.0734008734,0.3282316112,0.9379957181,8.3541112274,-0.9278300964,1.2711462419,-0.0913843118,-2.4480842159,6.917322499,6.8324187584,2.7882614455,-0.9103004291,-1.5808557848
0.6702912608,0.4873076902,1.1215251411,-0.6532544053,-1.3112435264,-1.808484974,-1.6691260332,2.1594488829,3.7827257354,6.8116978487,3.3526952511,3.3138013075,1.0826376671,-1.2302360107,6.1711376249,5.2734490034,4.265445474,1.2826060244,0.3363624171
2.6529756164,1.7310419411,4.087041116,3.3838651404,1.9586235306,0.9847012369,-1.0783727258,3.4355942505,7.0786223906,3.3457482993,7.998148948,6.3684573061,4.0717614583,1.5567215576,3.5564401246,5.3489450386,7.0300299512,4.1960361417,3.34787404
0.1668964019,0.824679221,3.4725221598,3.28195685,1.4939916101,1.1821232101,-2.2579641664,1.6382996559,5.1994038547,-3.1062252506,7.8376420198,5.672096856,3.669036137,0.9593387337,-2.3375189239,1.8442260866,6.6273531468,2.6468048613,2.5841508499
-3.0459323062,0.0263595432,1.42443254,0.5724265148,-0.6729644754,0.4145807777,-4.4769386384,-0.6730935186,1.9389757334,-7.1597811309,5.6030318975,3.0764354527,1.4173837788,-1.4301808598,-6.4653430297,-1.281511384,5.2361314324,-0.4790566831,0.0544410484
-1.5314517051,2.044059438,1.9650604581,-0.0523427255,-0.3796995224,1.6468675085,-2.5925524407,-1.0604006717,1.7975748112,-5.3379712158,4.7562641797,1.8794362592,1.6039383185,-1.0632326865,-5.7685853558,2.1844789498,6.4728705457,-0.1480895782,-0.3690217186
-0.1231462571,2.3251574568,1.9338934736,-0.9165714105,-0.3176009094,1.1219068363,-0.0510664814,-3.2649239698,0.1517597175,-3.0192594327,0.5550949013,-0.3157055154,1.3065802697,-0.8885271664,-6.5630344778,5.074719395,6.2554996325,-0.1610485546,-1.4896920085
-1.9228603375,-0.5732731044,-0.3112867972,-2.9877136505,-1.6574250326,-3.2277258123,0.0742294552,-6.0448182108,-3.8677039432,-5.2825541678,-7.0415591239,-3.4163897123,-1.1947452715,-2.9580737431,-10.7126664449,2.5398883232,2.2572004788,-2.4416898469,-3.5612987211
-1.9016328943,-1.1719620437,0.1213453844,-1.0940283939,0.476607552,-6.7730869513,1.8516872678,-2.757781793,-4.0851781992,-7.0091784313,-8.4910739235,-2.0706350876,-0.9214305164,-2.4340931648,-11.319998297,2.3462494567,0.7211767431,-1.3437744908,-0.9150218463
0.6529404244,0.9662514555,3.7187233011,4.1709175607,5.8943606518,-6.6733785165,5.2011676212,3.2023793318,-0.4931663388,-2.7728911526,-2.4193437085,3.4328642952,2.9511858488,1.6562563249,-8.5947467604,5.5839783323,3.3470694854,3.3195008273,4.8772281808
2.4968776179,2.470752727,6.7587798053,8.10875678,10.2796240358,-3.6674895542,7.008509786,6.1679758963,2.7715910451,2.6199929378,3.9755033962,7.9124226473,6.7303563832,5.5942926446,-6.3482520015,6.8572998835,5.4547955771,6.7478423563,8.1753300018
4.1675007912,3.6381551706,8.9417269989,10.60058361,13.443208684,1.0609097816,7.7014288697,8.3670611328,5.6376937144,5.602495432,8.4641066405,10.2148814962,9.3070194741,8.4855281092,-0.8708709513,7.628536331,6.9070463987,8.9802513188,9.6704946687
5.7797212691,4.69384123,9.9275635454,10.9773866948,14.439538385,5.003405922,7.6564785057,9.3792112301,7.4310185979,8.5568383096,10.2914962375,10.643388153,9.8634840705,9.7893145032,7.3267484736,9.5163989788,8.1987713184,10.2543613165,9.5844113743
5.8705274499,4.4866464252,8.2452894382,7.9447185103,11.3577552169,6.2665954364,6.0607434884,6.4660885553,6.2372724207,10.818975931,8.4724985198,8.9993664207,7.6692485106,8.2880825819,12.2900788461,10.6846422274,7.4782889182,8.3733042083,6.4507277302
6.1085952368,4.2355427061,5.8529830011,4.6089737108,7.573336986,6.0456050569,4.6982496703,2.8371486773,4.663223725,10.4509199809,6.9161477676,7.6984168005,5.2221432202,5.9720631004,12.9181019126,11.2216616499,6.6453931776,5.3404212886,3.3421465826
7.4049524696,4.6178875227,4.7181420562,2.8692779083,5.5819621298,5.2146406827,4.7548390049,1.8290677158,4.990736822,7.2346768148,7.3671129609,7.627874618,4.0094313073,4.4485441075,8.2067722368,10.4019914291,7.0279770031,3.6786138467,2.1290753261
6.5090742847,3.1312062742,2.5682979012,0.159062502,2.4003373551,2.3982661606,2.3043367693,0.6937829314,4.2345607801,0.5818251335,5.7324833092,5.828832968,1.4832086783,1.4434040119,-2.3178484188,6.2036919587,5.2026118518,1.0915549392,0.0067817382
3.3950982585,0.273051087,-0.7045897305,-3.3232350466,-1.9592086192,-0.8406589895,-2.6958671939,-1.3279295838,1.9797801274,-6.5072270954,2.3721688103,2.0997917573,-2.1739761988,-2.7259501212,-10.0653239341,1.0414227444,1.2933395325,-1.9212410972,-2.9267476594
2.48357796,-0.3127110834,-1.0867508422,-3.3549610608,-3.0847426391,-0.9797658017,-3.9950939569,-0.460109078,1.6435167387,-7.1408917344,1.045821703,-0.2014818804,-2.7514811451,-4.0366446085,-8.3036653108,-0.4934037591,-0.231585286,-1.3250902573,-3.2243687291
3.0612837393,0.3243552594,0.7136960902,-0.8128709426,-1.7917311401,-0.1966289151,-1.2280349425,0.9799827965,1.3306202751,-2.70625212,-0.1228311524,-1.1048119286,-1.2670058587,-3.3556662669,-4.0015325991,0.9552824727,-0.1626505797,0.8470317011,-1.9254385495
1.8755545129,-0.227505559,1.4831160225,0.1786774713,-1.4283500546,-1.2867729007,1.6580769309,-0.1589442983,-1.0085828449,-0.703877393,-2.123234188,-2.0437916842,-1.3179631065,-3.2852304465,-2.0446189601,2.4195819107,-1.0030840356,1.10312125,-1.5005808657
1.6822260202,-0.2379167197,2.6624803867,0.5705633967,-0.6954428903,-1.088323213,2.6471351492,-0.4927204698,-0.7714996514,0.7934418725,-1.5775050578,-1.0143872105,-0.6988789137,-2.0271687822,1.2614836199,4.1996649278,0.1574031533,1.8897750892,-0.1921567119
3.8564107831,0.2554609626,3.832459738,0.3817524703,-0.6064823607,0.9072800367,0.0425623308,-1.5895850663,1.9178862462,4.0752183952,1.1581260186,1.3766306424,1.058823663,-0.4491086816,4.3816082714,5.7861154854,2.4778638542,3.2340345544,1.402232066
4.3455959495,-1.5167871842,1.8820020767,-2.7747433763,-4.0069671281,0.479859255,-4.1314889362,-6.8710880236,1.5749109331,3.7046642778,2.7434148369,1.6403295032,0.1878276912,-2.0515648644,3.3622158367,5.7137712403,0.508999962,1.5922462814,0.2030862346
2.753935016,-4.1635559547,-0.8874362158,-5.7072342133,-7.2137165157,-1.960531858,-5.0691937228,-10.7433828337,-0.1868201401,-0.7491344703,3.5236320788,0.9105041364,-1.9962443943,-4.9745939135,0.8590296647,5.1637953912,-3.8216312663,-0.9215738427,-1.6030898403
1.5371321592,-4.3010232613,-1.576799233,-5.1578654084,-6.9106127157,-3.2781551116,-2.08502539,-9.4717117511,0.137105007,-4.7391486318,4.8145332404,1.2657049449,-2.6690325136,-6.1126155742,1.355207878,4.0188702826,-6.2063005521,-1.0846880359,-1.4446297124
0.1629807783,-2.9437275498,-2.1719920629,-4.1028989573,-6.3606909521,-4.0572019667,1.0657495294,-7.8033936537,0.2902294708,-5.4925510621,4.3580288975,0.9126986743,-3.8009780276,-7.1558543881,2.3969512749,0.8648189993,-8.1015804059,-1.6175243134,-2.468804629
-1.8196749035,-2.4446451265,-3.7519232421,-4.931784716,-7.885722932,-4.696176522,1.4872830056,-8.5323975306,-1.0893243672,-3.1295254371,2.0346309005,-1.2369591266,-6.2554993132,-9.4173917254,-1.3671521865,-3.0215386848,-10.277100706,-4.2607779923,-6.1201282683
-2.6248045959,-2.2031141188,-4.4542529356,-6.1219816664,-9.3935690487,-3.2090773378,1.2467424095,-8.4831624255,-1.8450013959,0.9713913723000001,0.7089699064,-3.1651301878,-7.3233734448,-10.5116192505,-6.2266183708,-5.4886834999,-10.721822387,-6.0281781774,-8.3781206868
-1.8655876601,-1.761180511,-3.9650686167,-6.9926396556,-9.6188752932,-0.2347338013,1.8861117575,-6.3309559526,-1.870530015,5.3799269064,-0.4511466157,-3.8875046724,-6.6386007354,-9.5196292953,-5.4789914707,-5.8265515215,-10.1679645566,-6.1999075792,-7.8992131447
-1.2076905887,-2.2198341541,-4.0888146299,-8.4663111688,-9.5725036362,1.6361092524,0.7194993723,-4.9389620879,-3.3688977716,6.0180687337,-3.7381442117,-5.0962995021,-6.7559644251,-8.4431785809,-1.8175766074,-5.1666302251,-10.7369559426,-7.0705072244,-7.5755353058
0.0846910576,-2.7505242242,-4.124475375,-9.3898282545,-8.859827901,2.8018007359,-1.6248738971,-4.2626397053,-4.8334848989,3.6258393841,-6.9551116401,-6.2998204194,-7.3798666143,-7.7039880728,0.251998965,-4.4785816226,-10.6856092233,-7.56639108,-7.5530680831
2.3876075399,-2.5782753644,-3.1715137202,-8.9877986399,-7.5977386636,3.4696771294,-2.1371826818,-3.4340611992,-4.3385963894,2.0719610398,-7.4778134987,-6.0371129154,-7.2603413932,-7.0604965657,1.580625653,-3.2130607384,-8.8570612104,-6.4130693518,-7.1715116418
2.3944080912,-3.5039580002,-3.5450900504,-9.2165889471,-8.2136629477,1.6553860912,-2.1468922533,-4.8110030146,-4.7309392072,-1.950437214,-7.6128377462,-5.9353794962,-7.8911450021,-7.816592214,1.2635190193,-2.5892844992,-8.143674439,-6.2857470788,-8.264396961
0.8131916778,-4.1178647595,-3.8791192005,-8.6123053645,-8.8640543007,-0.3428446545,-2.5780756649,-6.6409089179,-5.5347935241,-5.8841178227,-6.828028423,-5.2746991042,-7.8660314909,-8.4200813582,-1.1735034912,-3.7575717055,-8.4219063364,-6.4236534287,-8.7234006113
0.7708864351,-1.5826457712,-1.4708965624,-4.7028668101,-6.0244847669,0.8728867246,-1.6120769141,-5.0246520587,-3.3457773358,-2.5579743826,-1.72034711,-1.9333409957,-4.7586006228,-6.5503727504,-2.2728915199,-4.2227603737,-7.2672408137,-3.7242019378,-5.0545851725
0.4496226702,1.2893028416,0.4180206595,-1.2128153815,-3.0434739222,2.0329887462,-0.5201943475,-2.4999580534,-0.6412102388,2.2447356604,3.8611613773,1.2713831248,-1.7358274647,-4.7391362808,-2.7982547428,-2.775226803,-5.7756941356,-0.9358514362,-0.6779912448
-0.4226406848,2.3673712117,0.3862174319,-0.4382761835,-2.458865928,0.7333146589,-0.8585858456,-1.5881867673,0.4133269988,0.2716435376,6.4954049072,2.4051658812,-0.6846550957,-4.3059853348,-4.6820214635,-0.348248899,-4.5641539012,-0.1555828568,1.1272956492
1.0981617829,3.8115858642,1.3621465516,0.5936136458,-1.0870146621,0.7443605821,-0.1939888125,0.2170356625,2.3170678327,-6.4897541183,8.8729479147,3.5580810529,0.8162304995,-2.8517331534,-5.0486621637,3.2594168815,-2.1395813398,1.3320303098,2.6290789532
3.5216402587,4.7173106449,2.0446093338,1.4095532378,0.0833411664,2.574068706,1.8272292572,2.1379025894,3.9209812419,-11.4952170547,9.6027686493,4.2241989561,1.7870187756,-1.7068627957,-3.727249744,5.7313216116,-0.4135705796,2.5528324111,3.3077204797
3.9523817383,3.034089282,0.0554562894,-0.3835682921,-1.9898341545,2.6532746705,2.9862606222,0.9304328599,2.0162654236,-11.4429366711,5.4418958514,2.4405825315,-0.1145247917,-3.3928609749,-4.8277616703,3.5374857743,-1.9828623881,0.5995670714,0.3804383227
4.264173125,1.6011769075,-1.1916016475,-1.5948815551,-3.497746818,2.3421476764,4.1347600505,-0.9770646107,-0.14209706,-6.295018534,0.4593971876,0.5605771793,-1.5161094481,-4.4685555206,-7.5728012861,-0.654977859,-3.5650156722,-1.2123119127,-2.2867968926
6.0761550309,2.1544778439,0.5704410775,0.6816137037,-0.8802167773,3.5191477825,4.7350648297,-0.1066827561,0.688927301,2.2424448547,-1.2395713857,1.2940717667,0.8625973977,-1.7318520681,-6.6415566965,-1.8368675016,-1.3495321308,0.1733848379,-0.6460717706
6.167288086,1.3270569946,1.3225637077,2.2750840947,1.6241785366,2.4926735196,2.2327767116,1.2673205891,0.3061450235,7.2256529281,-2.9479938875,1.9112636601,3.3137530593,1.0935268212,-3.3287126796,-1.1279169581,1.900481779,0.6078422074,1.2293381572
3.934978682,-1.0584118588,-0.053894837,1.2435775547,1.0129081857,-0.9376215111,-0.0026439285,0.6187276204,-2.5591290997,5.5914233418,-6.0813195519,0.5635579369,3.4235181879,1.4392057181,-1.6429308465,-0.4586015121,2.8032565108,-1.0435133684,1.093737796
3.5025704434,-1.5542472964,0.3502026196,1.5597423728,0.642737723,-2.3187925349,0.3017470793,0.0169270013,-3.2760999277,2.5362979666,-6.7671912496,0.4609453133,3.7284675083,1.7754646887,1.0561417287,1.8966967656,2.437731969,-0.2616476421,1.8741809981
3.7477746752,-1.4839533622,1.3791321159,2.198192023,0.553048814,-2.7578987284,-0.8823719437,-0.372156972,-2.7629567053,-1.8479913976,-5.3174403541,1.2402469219,3.1339227777,1.2586059397,3.8855188516,3.391140847,0.72233076,1.3478244469,2.0908126674
2.1068694772,-2.2096433523,0.7808215643,1.1418304886,-0.4979240423,-4.3050669781,-3.0015790209,-1.3227493133,-2.8362645385,-7.2788874075,-3.2924416598,0.976031587,0.7158382429,-0.9951072999,2.6270912702,0.6963774642,-2.3970556973,1.2862697691,0.8637026922
2.0688264383,-0.2991383093,2.4146794567,2.453530915,1.2169716371,-2.9877551838,-2.3214156631,1.0688664287,0.2419260867,-7.8821393294,1.7545877917,2.9402883229,0.790040488,-0.8781597974,0.437400242,-3.0044195036,-3.2034092813,3.7141614056,2.9140855219
3.6785096177,3.6220014911,6.0828251754,5.7319522576,4.6325422567,1.8808504641,0.0031500822,5.5916901053,5.4122944213,-5.8588914345,7.4355479052,7.0644153372,3.5794020614,1.495999948,-2.589758597,-5.956737259,-1.4937870043,8.2444518881,7.3078577953
3.5933643825,5.7494706317,7.3645305738,6.4869138319,5.1542591543,5.2124124361,2.0936004592,5.8815347788,7.6079408232,-6.2194655497,9.4949530654,9.4486464764,5.3632842614,2.6966582299,-10.5581442158,-7.1072487357,-0.2568348775,10.0299651844,9.0775390192
3.512162247,6.5241413107,7.4645917697,5.5568732192,4.219072422,5.2538715067,4.4321800196,3.6544941642,7.2950375666,-4.9719074495,10.0980097347,10.3873364853,6.2419123322,3.4399562012,-16.8031445994,-1.6596893926,1.1974595624,9.9713483429,9.2115101819
4.7299271326,6.2524427638,7.6666720099,4.3498109896,3.3404315098,2.8399260203,5.4690040359,3.2604220509,6.3580738118,0.1778509034,9.3598445038,10.039484768,6.549770576,3.6310733045,-12.2852171004,6.7265066047,2.9245807826,9.800211783,8.6655429054
4.8929501013,3.7358287557,5.7417043556,1.7121096541,1.3237088373,-1.8152196225,2.7911444635,2.8195884988,3.8590214451,4.2990654267,4.3766356033,6.3148773033,4.4078436206,1.0657934938,-0.635088738,9.2024028692,2.2050891022,7.4067278379,5.2458973372
3.9348097651,0.9222487087,2.5080931718,-1.1039847339,-1.0095370039,-5.4026593298,-0.5616996847,1.4143102223,0.8280948837,5.7320672717,-2.5569141799,0.7119222493,0.7681931251,-2.4635252603,9.4437585684,7.1327188667,-0.3059932875,3.3379241619,0.5042452677
4.0815770862,0.482879476,0.9737558077,-1.9424581645,-2.7884694557,-4.6716553256,-0.4602605467,1.75090005,-0.1763191893,6.5691510105,-6.2892912741,-3.0750112313,-1.3614373844,-3.7907664569,13.1121962087,3.2095874952,-1.8363087689,1.1572760013,-2.023153055
4.6089357178,0.7475479614,0.4441743427,-2.2212138978,-4.5677659657,-2.6390440284,0.8449145582,3.1781360494,-0.4756396398,5.0428298952,-5.7399610694,-4.8883282006,-2.6542051438,-4.0339434506,6.7105248161,-3.4626937889,-3.7832402935,0.0988416675,-3.1733783928
4.4712051819,-0.6764104876,-1.2030276151,-3.4530034678,-5.8548533749,-2.2837296089,-0.1692746954,3.5103809575,-2.0209871935,0.0393143911,-4.1307164412,-6.2529684682,-4.8867371626,-4.5611610979,-6.2287046574,-8.360558051,-7.3961027342,-2.1405939824,-4.5118452237
5.7612274997,-1.645351379,-2.0003330765,-3.1962990142,-4.8563032776,-0.8885924525,-1.5741765838,3.6798196747,-2.534788247,-4.0735544028,-2.4907848247,-6.4681938552,-5.7249052646,-3.4736615284,-12.6349479826,-7.3428791646,-8.8528930114,-2.6723671505,-3.6142804974
7.6074497811,-1.3242438112,-0.9516334265,-0.8610580096,-2.197892499,1.8997925751,-1.1287191268,2.8836158219,-1.3899852808,-5.9574379746,-1.2568341201,-5.6841294177,-4.2244382622,-1.1753855285,-10.0254387428,-3.9874043821,-7.4831888787,-0.5629905078,-0.606387947
6.3537933397,-2.1935948292,-1.3154361801,0.009817193,-1.1625235761,2.3298780957,-1.2658107197,-0.7699166899,-1.7884689446,-8.5178902556,-2.6752976762,-5.8882098049,-3.402204713,-1.0035856741,-8.1007937018,-3.4547394722,-7.1934911158,0.1818537521,0.8399388311
3.0320809644,-3.1148709611,-2.6900733362,-0.2867100188,-1.2330453324,1.5048691836,-1.1626917504,-3.3556071889,-2.7472013215,-10.9776612405,-3.6077357851,-5.8133186275,-2.828657474,-2.1363923853,-8.8718800074,-3.3709410779,-6.8245052222,0.3794172884,1.7375991737
1.8324965302,-1.4040211977,-1.4346774933,1.3993268987,0.2352039632,2.4106373423,2.8990741091,-0.9990950493,-0.8120706838,-11.113710272,-0.2722660848,-2.4222015407,0.4624459867,-1.0972562714,-9.6011476249,1.0404438858,-2.539092052,3.4841891779,4.3650369897
3.3456113858,1.4061612208,1.9088145189,3.6402283164,1.5745945604,3.3126145033,6.5616348661,2.791572484,2.156755971,-9.5170084325,3.71544668,2.4343097487,4.8280786793,1.2881423864,-11.7284508239,4.7728848476,3.1261652026,7.1647604591,6.5620325028
4.9531374477,2.7491965646,4.3504024929,4.2670747325,1.3042872116,2.8568466278,5.1825202021,4.5385408836,3.4312202925,-5.894481259,4.8299308396,4.822576506,6.6670457651,2.8191490566,-14.8188451637,1.7262697923,5.219133492,8.1613463336,6.8398681286
5.590197935,3.3494666683,5.2268646724,4.5727906815,1.5217972312,1.8759875209,2.9931229165,5.6167833599,3.9527120439,1.7319444377,4.2679763352,4.4295889279,6.2519578371,4.0516064253,-13.7063165552,-2.9613730766,4.4020631899,7.4912747793,6.5116769411
4.7125391104,4.1214556298,4.8783174798,4.5711141182,2.0712096742,-0.3823407324,2.1378516563,5.6451819941,3.5847107435,11.0102978935,2.4005776224,2.2592651132,5.0652211028,4.5595962781,-6.4401018858,-2.8431308559,3.2437871813,5.8428293026,5.6605648887
3.2053661903,4.4607127018,3.3029693905,3.5019627271,1.6557344009,-3.5751230557,-0.5372460422,2.4421122657,2.3688584236,16.783371238,-0.8925723313,-0.1692358434,3.4288800041,3.8473098774,2.1138828704,0.6658020465,2.6057005636,3.3710849988,3.6878375407
4.7374443144,5.0862015019,2.5622144603,3.840670901,3.0221523777,-3.6675932847,-3.5466660705,-0.5784186882,3.4073525589,17.4024178251,-1.5785052663,0.0024724331,3.3015906766,4.596287052,8.9195344878,4.0439167582,3.8795398632,3.4065313135,2.9455912742
7.7174902645,5.2118822806,3.4328003967,5.7886091298,6.309882663,0.1957799264,-3.8856272595,-0.0468621186,5.7413356944,11.4053590538,1.6334747257,2.3094303944,5.0091591375,6.644002882,11.2749480522,4.8472955112,5.4687789266,6.0508779858,4.5466701799
6.7120576006,2.5157530849,3.0372964615,6.0124816136,7.2995461795,2.9195950846,-3.6570695734,0.5396677296,5.310533667,-0.5306120718,4.0190566809,3.1934276138,5.1715869162,6.4470148787,5.2379643375,2.1546881276,3.9598348301,6.6768369352,5.0708227379
3.009027132,-0.2838532322,2.2044751026,5.4808795208,6.7165267682,2.815810831,-2.5079972678,0.2955611206,3.7126859187,-8.7416241541,4.516916363,2.641375703,4.2286466898,5.6493634786,-2.214605521,-0.1670158665,1.6541680328,5.7327314795,4.3604940345
1.0884100805,-0.0268385362,3.7931356178,6.5299655969,7.3822018482,2.2694899652,0.9963275125,1.5103681944,3.302056734,-8.0037616213,3.938954737,2.3236541723,5.0497962583,7.2708568785,-3.3762996979,0.7011593047,1.3769551202,6.0191755263,5.1021594446
0.1163624763,0.5281198861,5.3355336672,7.1043682354,7.5739605518,0.7654640416,1.8850837991,2.6065612332,1.6998160993,-6.9986545318,0.6017833338,0.9842152564,5.4849547274,8.4858965879,-3.3427523475,1.0600863136,0.8116576622,5.5708415967,5.4326335985
-1.1224086801,0.3788993673,5.2169827167,6.3309240214,5.9645867786,-0.7189688651,-0.4359329017,2.9858636353,-0.868570628,-9.0625911228,-2.8137446618,-1.0183043538,3.9286418652,7.4832601157,-5.5085599746,-0.5685343432,-0.2860847744,4.1789685671,4.4567498927
0.2826301545,2.181340479,6.1207062494,6.5726602429,4.4216416158,1.2232999377,0.0167038318,3.7145612578,-0.5851971905,-7.1056222831,-2.2764076567,-1.1012756178,3.0289998932,6.6068525461,-6.6109367261,-1.2053786796,0.2771396128,4.881982937,4.5372531342
2.7048824094,4.049859772,6.9696696,6.7285925033,2.5684518937,3.7504422575,2.6843460125,3.0586973288,1.0687000211,-1.7955630216,-1.3433703581,-0.8772386258,2.2080313511,5.1693072426,-6.983957252,-2.8717894551,0.0810514956,5.5715902885,3.888259043
1.9459358039,2.6265376855,4.4464712008,3.4454821659,-2.1031517532,2.7384927133,3.5797412683,-0.1316389068,0.3870561687,0.6577513247,-4.079599984,-3.0277870267,-1.2350383968,0.7300796433,-9.1010729045,-8.7312080825,-3.4548504967,2.8844603234,-0.0288383134
1.8019420138,0.4227183754,1.2131887351,-0.9731413801,-6.9470530311,1.662802092,3.460378659,-2.7967996911,-0.039156691,1.2899354047,-5.8034318747,-4.8341929312,-4.8112736948,-3.8573791186,-10.6899059715,-13.268864942,-6.5024054855,0.2095104458,-3.9280871005
5.6666521967,1.1447964813,1.0662147426,-2.7409016351,-7.6526198389,3.5931535742,3.8879445325,-3.0181962326,2.3302565614,4.6668426787,-2.2494512092,-3.4315984329,-4.9417484423,-4.4541915885,-8.157243604,-11.4891599703,-5.4480384586,0.5168465743,-4.520868356
9.2708625283,3.6868963499,2.5939095749,-2.9559965251,-5.6151743271,5.6767625548,4.0155851535,-3.1875700274,4.7645449103,10.0461753413,3.0384242974,-0.8340882172,-2.6174124763,-2.3983012975,-4.5046894932,-7.3678702875,-2.4322328896,1.8743813012,-3.3734631373
9.5731795312,5.6561614839,4.1603151475,-2.1506281756,-2.6634617146,6.097352999,4.0939116494,-2.8119694599,5.7621521459,11.3590421007,6.6656075693,1.04586305,0.1548275504,0.0286611726,-3.481923349,-4.3073875419,0.4596177797,3.5003829966,-1.2418516702
7.3535836229,6.5792400103,5.4866776907,0.2369899794,0.7771632313,5.7611431293,5.1945412782,0.2292045696,6.2445688468,5.4332137111,8.1278912168,2.7678703454,2.6263597662,2.7909358346,-2.8970760826,-2.05681124,3.2975031024,5.0892730832,2.1747345373
3.3208250316,5.5216730896,4.8210490386,1.441006714,2.1435930185,4.2726199604,4.2390041325,2.4566637592,5.5106174792,-3.4836238751,7.0123259428,3.8253343099,3.4534659775,3.946546042,-2.5626772338,-1.7861653156,4.119681512,4.3576882448,3.2901709927
-0.4086363892,2.5913826267,2.4401107395,0.8205396101,1.6379225375,1.669266517,0.5444072485,2.035347127,3.4991566207,-7.7934740586,5.0253497643,3.5452709173,2.3004921285,2.7206517349,-3.0410664961,-2.6552473087,2.1275552108,1.5803951568,0.9694340567
-0.8825967681,0.6030573565,1.3193661653,1.5313832481,2.3795259117,0.4077133744,-0.065427933,2.5684319509,2.6704103286,-4.307164893,4.6098116423,3.2974454205,1.4106236134,2.1644853933,-1.0129810357,-1.5611633999,1.4644936355,0.4265087811,-0.5189601298
0.2141352239,-0.4851246616,1.2049537364,2.5341694546,2.8231777065,0.4973149673,1.7818121756,3.5435517299,2.5560018396,1.0338927771,3.7958696201,2.7616390713,0.9529732608,1.9881954313,1.4352624006,-0.3333571649,2.7294617182,0.7629319866,-0.6162670703
-0.2450428901,-2.6240842121,0.0492398428,1.2581220578,0.9413288286,-0.0823165819,1.1200099877,2.0834399162,1.028662502,2.2517274835,0.5582698398,0.7641582455,-0.710394423,0.2591532136,0.3849223327,-2.2377572335,2.2125908559,-0.6816764721,-1.471317417
-0.5923723206,-3.4112273913,-0.5330567242,0.4474122491,0.2622228882,-0.2925504808,0.40537506,1.1611700709,0.5138921523,1.6178096791,-1.5790348702,-0.3343780293,-1.406135072,-0.2867215207,0.1465278068,-5.0330074401,2.216292876,-1.8432832913,-1.4892360741
-0.0385240699,-1.8040729101,0.3558204706,1.7362747613,1.7443440899,-0.2337613749,1.367555342,2.9943475314,2.0466829263,1.1254042144,-1.1054940473,0.2397637345,0.0646742509,1.4557080877,3.2114938416,-5.7403439676,5.1644262062,-0.5805473371,-0.18488065
-0.464011756,-0.8506490916,0.6342176069,2.6401410899,2.7725742353,-2.4056442174,1.4403954321,4.1814817606,2.9160615155,0.5975637704,-0.1046489018,0.3953015104,1.2071529771,3.2148148005,5.4251470729,-3.3650622831,8.137526198,0.1757730552,0.1296749161
-0.300454337,0.1734986329,1.6406714659,3.6147899848,4.2225062921,-5.2177025436,1.944445082,4.287244433,4.0486310531,2.6492873843,2.7087559612,1.3415695448,2.312951234,5.4706353731,5.837030785,2.0632580813,10.7899095923,0.9267657613,0.7706490614
1.3313128832,2.9140980225,4.6636170025,6.1805344737,6.6279731367,-5.1085491794,3.8094482311,5.4564991145,6.5768456631,6.2091371446,7.5100997494,4.2312283238,4.4879275821,8.5313419337,4.7029842809,7.0849907178,12.8621334319,3.8018567714,3.85698908
0.3543526683,4.3574570051,5.3836191823,7.3527923446,7.6096213152,-2.7795878112,3.0927452289,5.3786480841,7.1387884047,5.0659249931,9.6151018457,5.9532047861,5.1845448959,9.0284612661,0.6448308439,7.2443674476,10.5242507663,5.2699856275,5.7691515076
-3.7586561581,3.233191478,2.5787907479,5.6000111604,6.452488049,-0.4073970097,-0.7643507598,3.1739522624,4.9147464805,-1.2366445175,8.250836068,5.126714335,3.3439257413,5.9541914646,-2.647928204,2.9366890437,4.5902960237,3.1670745673,4.1745158584
-5.212418724,2.5369152327,0.6787684142,4.5395763936,5.4688415231,2.7225494369,-3.7437785106,3.105916995,3.5422354624,-3.7991947995,7.9874547703,4.7739334715,2.5188221138,3.906598052,-0.9264731363,-0.6231116308,1.2262273878,1.5936356026,3.8733231576
-3.4735488332,2.1593798398,0.0584230615,4.9214100584,5.7658430209,5.2008502832,-4.8178382169,5.2376551155,3.0970543025,1.4855521917,7.6514418218,5.2810293779,3.7248143976,4.3965268605,3.5364019899,-0.9709500147,1.8197669061,1.8516851832,5.5573093758
-3.9944935983,-0.5184911071,-1.9568482307,3.7243882283,5.1570808243,3.2397904245,-5.1186233855,5.2859204815,0.8513768939,7.1723884991,2.9903792948,3.8533509804,3.938585821,3.8888440989,7.2631644119,-0.5469510183,3.4152145784,0.6058716718,4.11749064
-6.5549213015,-3.6941105108,-3.7804962392,1.6790728713,3.4475755067,-1.3514657522,-4.1339991874,4.2168943269,-1.6340444538,7.7028473316,-2.8818320346,1.3410941294,3.1689584319,2.7559806997,9.7269197345,-0.3212680372,5.723331436,-1.4701167199,1.3369523415
-8.2933173952,-4.8963621833,-3.200834409,0.9423291107,2.5757582356,-4.6223382966,-1.588608377,4.6901628921,-2.3267307317,4.5529331179,-5.5141518645,-0.1132623778,3.0303047169,2.98749863,11.1233973709,1.0227932736,8.3103220504,-2.0123907362,1.142921991
-9.7752436571,-5.5240740675,-1.9835162557,0.4402921976,1.7829859418,-6.0677387655,0.3671979404,4.6339218834,-2.9314034556,1.4649466532,-5.3697634754,-1.1904865809,2.7025936606,3.1739028485,10.8697107327,3.0927539418,9.0473258077,-2.4040946652,1.4148323402
-9.6286255338,-6.4741044369,-1.5386117175,-0.18798529,0.4748177366,-5.2707745967,0.7165343571,3.1410943583,-3.8969229427,0.9202532509,-4.2433145775,-2.2456262503,1.4632918988,2.6967867706,8.4871596064,3.5383788491,8.1094335187,-3.3196817616,0.7141794557
-6.9712097938,-6.8060073608,-1.4125617963,0.0814854393,-0.0305668116,-2.5409056213,1.1942040602,2.4425796085,-4.3629896416,0.6586966611,-3.6754775327,-2.880147505,0.3761831539,2.6318740024,4.8516040784,1.7946284242,6.7530838422,-3.9472024274,-0.4260649808
-5.5433508791,-7.1872645882,-2.6714465908,0.0087553404,-0.3192343343,-1.2689528736,1.144267299,2.2420027082,-5.9977318248,-3.660577612,-5.2973585501,-4.0094499012,-0.1382834348,2.6751007585,0.5048537,-1.7119747914,4.0832166607,-5.6758782884,-2.4390849016
-6.1528643798,-8.231003876,-4.9974040262,-0.9551709784,-0.9127952104,-2.4981689513,0.1139059215,1.7395611939,-8.3982486908,-11.2042571877,-7.7956033631,-5.2664062945,-0.5838356599,2.4680717554,-4.5995944781,-7.4377498282,0.480328166,-8.1523695532,-3.6305258513
-5.3798036516,-7.4439639044,-5.039066102,-0.3954574251,-0.1938808789,-2.8037724579,-0.3054968102,2.6199799647,-7.742566669,-13.7414140413,-6.5692294421,-3.9263703043,0.3843967953,3.7841851695,-7.5430444575,-10.9847248702,-0.0404111317,-7.4316195425,-1.5170699847
-3.4763696201,-4.7018030064,-3.4956793,1.1937929259,0.9734115146,-2.2036640219,-2.2689226165,3.0791569816,-4.997143111,-8.3138999456,-2.649700877,-0.7898143114,2.0722795497,5.8819198681,-5.935041734,-7.860264068,2.6473821482,-4.4257240791,1.2974213242
